TimeStamp,Delta_TP9,Delta_AF7,Delta_AF8,Delta_TP10,Theta_TP9,Theta_AF7,Theta_AF8,Theta_TP10,Alpha_TP9,Alpha_AF7,Alpha_AF8,Alpha_TP10,Beta_TP9,Beta_AF7,Beta_AF8,Beta_TP10,Gamma_TP9,Gamma_AF7,Gamma_AF8,Gamma_TP10,RAW_TP9,RAW_AF7,RAW_AF8,RAW_TP10,AUX_RIGHT,AUX_LEFT,Accelerometer_X,Accelerometer_Y,Accelerometer_Z,Gyro_X,Gyro_Y,Gyro_Z,HeadBandOn,HSI_TP9,HSI_AF7,HSI_AF8,HSI_TP10,Battery,Elements
2023-05-23 12:31:12.772,,,,,,,,,,,,,,,,,,,,,,,,,,,,,,,,,,,,,,,/muse/event/connected MuseS-6FB5
2023-05-23 12:31:13.773,0,-0.1135193257761159,0.07133199575502566,0,0,0.2492312242216229,0.1911274755970955,0,0,0.2797121475502232,0.3531109839911029,0,0,0.148138095492322,-0.05185751779585959,0,0,-0.1266091333787137,-0.3106630695368232,0,0,800.6227106227107,804.2490842490843,0,818.7545787545788,636.2271062271062,0.451965,-0.112549,0.893005,-0.433655,-0.635529,2.586975,1,4,1,1,4,84.000000
2023-05-23 12:31:14.783,0,0.07531586803759464,0.3272095797915108,0,0,0.4334988954139392,0.2603155841643879,0,0,0.256007558756649,0.3877351793588639,0,0,0.1275447552021542,-0.05552964438360983,0,0,-0.2957107613398799,-0.3659845684991368,0,1623.809523809524,808.2783882783883,807.8754578754579,1624.212454212454,765.5677655677656,685.7875457875458,0.452271,-0.117920,0.876770,4.157104,-0.590668,4.104767,1,4,1,1,4,84.000000
2023-05-23 12:31:15.773,0,-0.02139452759837829,-0.03914528559420551,0,0,0.2691755310319257,-0.4233514185488651,0,0,0.3976733569812477,-0.09021609237900542,0,0,0.1246138171560873,-0.09242364829053316,0,0,-0.1930708324592589,-0.4350990756640648,0,21.75824175824176,794.5787545787546,802.2344322344322,18.53479853479854,733.3333333333334,619.3040293040293,0.450928,-0.130188,0.899719,-0.284119,-0.725250,3.259888,1,4,1,1,4,84.000000
2023-05-23 12:31:16.773,0,-0.009816379704087904,0.2156954329612335,0,0,0.2075225845396698,0.02926309706779047,0,0,0.3940258064436494,0.1720281831692673,0,0,0.05833088998735469,-0.1361343779328998,0,0,-0.1049230102130739,-0.3436710161015816,0,0,792.1611721611722,803.4432234432235,0,810.2930402930403,671.2820512820513,0.420288,-0.128967,0.904358,2.609406,-1.742096,3.730927,1,4,1,1,4,84.000000
2023-05-23 12:31:17.775,0,0.09297831881502913,0.118055283287404,0,0,0.3628268988974633,0.08366645803198568,0,0,0.5125348557057273,0.3063239211399405,0,0,0.08065649782311049,-0.04220020205019586,0,0,-0.1297309572439445,-0.5558306551927082,0,1624.212454212454,801.8315018315019,807.0695970695971,1624.212454212454,874.3589743589744,729.7069597069598,0.423279,-0.098022,0.911499,0.628052,-0.328979,2.886047,1,4,1,1,4,84.000000
2023-05-23 12:31:18.847,0,-0.07324216614743297,0.06187205852200691,0,0,0.2010564931919145,-0.04264454663246145,0,0,0.5157476986239515,0.3688739762853271,0,0,0.197131236338634,-0.08019517034543279,0,0,-0.0593381449190997,-0.4615770585110601,0,0,795.3846153846154,801.8315018315019,0,809.4871794871796,682.1611721611722,0.416931,-0.118042,0.895020,1.368256,1.614990,3.588867,1,4,1,1,4,84.000000
2023-05-23 12:31:19.866,0,0.00296563404653365,-0.01751487034495051,0,0,0.4160787830518986,-0.2931151479375494,0,0,0.5370514503046182,0.1592410438135915,0,0,0.1956253829414609,-0.1006872705004302,0,0,-0.0904784998140236,-0.467769023606767,0,1623.809523809524,810.2930402930403,791.3553113553114,1624.212454212454,854.6153846153846,699.0842490842491,0.407715,-0.141968,0.880310,-4.987030,-0.912170,0.194397,1,4,1,1,4,84.000000
2023-05-23 12:31:20.881,0,0.1710801491066553,0.5063554699646423,0,0,0.3439472897785733,-0.03332449142733129,0,0,0.4640336951986679,0.1440165621638789,0,0,0.1202766302672247,-0.1341748067896608,0,0,-0.2310529192786196,-0.5463355171678025,0,0,807.4725274725275,794.981684981685,0,775.2380952380953,614.0659340659341,0.432678,-0.105347,0.915039,3.910370,-1.502838,6.676788,1,4,1,1,4,84.000000
2023-05-23 12:31:21.870,0,0.08478070636789904,0.5211100781240557,0,0,-0.02024064938479335,0.2134393719264409,0,0,0.2762612596045548,0.2097549606074529,0,0,0.1844219766313273,-0.06992187935725641,0,0,-0.2736142419316234,-0.4895974806930468,0,53.18681318681319,797.8021978021978,803.4432234432235,47.94871794871795,842.9304029304029,664.8351648351648,0.415833,-0.162109,0.882629,2.213135,0.209351,4.403839,1,4,1,1,4,84.000000
2023-05-23 12:31:22.826,0,-0.390807966905361,-0.2728679974123904,0,0,-0.08699484970905516,0.1659302761434489,0,0,0.1207079165490608,0.3270936740377586,0,0,0.1846505844026581,-0.07664392286940792,0,0,-0.2007013762900013,-0.5851250516305013,0,17.72893772893773,812.3076923076924,799.8168498168499,16.92307692307692,761.5384615384615,569.3406593406594,0.419678,-0.169678,0.884583,1.450500,-1.450500,3.117828,1,4,1,1,4,84.000000
2023-05-23 12:31:23.780,0,0.1977653775118533,0.1160988284847758,0,0,-0.0144249751560419,-0.0378882452531043,0,0,0.3517358467732893,0.2286120542340735,0,0,0.2129548778486557,0.0847917547577197,0,0,-0.2118438049361195,-0.4826669408708143,0,1623.809523809524,805.8608058608058,815.934065934066,1624.212454212454,868.3150183150184,728.0952380952381,0.415100,-0.193176,0.877563,-0.366364,0.530853,2.691650,1,4,1,1,4,84.000000
2023-05-23 12:31:24.872,0,0.3702281112780821,-0.3659356094546831,0,0,0.09348530934914419,-0.07224735678430017,0,0,0.4348039127721435,0.3364191232981052,0,0,0.1430682964116925,0.001986397128434968,0,0,-0.07458975676663067,-0.3721298164099465,0,51.57509157509158,807.4725274725275,800.6227106227107,28.2051282051282,889.6703296703297,766.3736263736264,0.430786,-0.197205,0.875488,0.927124,-0.336456,3.312225,1,4,1,1,4,84.000000
2023-05-23 12:31:24.998,,,,,,,,,,,,,,,,,,,,,,,,,,,,,,,,,,,,,,,/muse/elements/blink
2023-05-23 12:31:25.862,,,,,,,,,,,,,,,,,,,,,,,,,,,,,,,,,,,,,,,/muse/elements/jaw_clench
2023-05-23 12:31:25.894,0,0.04657776435094231,0.1874455813210939,0,0,-0.07426419392086224,0.1668812120576537,0,0,0.4169639566175995,0.3264985760942098,0,0,0.1562137087430135,-0.08857033610176991,0,0,-0.2446534625080152,-0.5163807178166359,0,29.01098901098901,809.0842490842491,816.7399267399268,43.11355311355312,801.025641025641,668.4615384615385,0.429321,-0.188721,0.881104,2.153320,-0.919647,3.200073,1,4,1,1,4,84.000000
2023-05-23 12:31:26.794,0,0.0208953412190516,0.5867744203008954,0,0,0.1335758184403553,0.0138814102062117,0,0,0.3286472782054747,0.3020636563621541,0,0,0.1179765508583337,0.006144553580899954,0,0,-0.2310748240329812,-0.3057511343994742,0,1623.809523809524,799.8168498168499,813.1135531135532,1624.212454212454,773.6263736263736,615.2747252747253,0.445312,-0.184448,0.875793,0.485992,-0.254211,2.549591,1,4,1,1,4,84.000000
2023-05-23 12:31:27.867,0,-0.2145455320823691,0.3452586330484966,0,0,0.2209046832941997,-0.07084348622005796,0,0,0.3283470485391957,-0.02428648676337785,0,0,0.1002666669885149,-0.08212060230989232,0,0,-0.07397585116715445,-0.2507599395814855,0,0,799.4139194139194,811.5018315018315,0,873.956043956044,707.5457875457876,0.457397,-0.208008,0.918945,8.598328,8.321686,8.830109,1,4,1,1,4,84.000000
2023-05-23 12:31:28.012,,,,,,,,,,,,,,,,,,,,,,,,,,,,,,,,,,,,,,,/muse/elements/jaw_clench
2023-05-23 12:31:28.147,,,,,,,,,,,,,,,,,,,,,,,,,,,,,,,,,,,,,,,/muse/elements/blink
2023-05-23 12:31:28.837,0,0.1348104021311169,0.4897485246062137,0,0,0.2180062660540719,0.1586633071784831,0,0,0.6484921463917213,0.6900203581438843,0,0,0.3497912337695739,0.404515428350435,0,0,0.2944588485158848,0.2430145360936168,0,1624.212454212454,818.3516483516484,790.952380952381,0,803.040293040293,748.6446886446887,-0.448914,-0.027283,0.862244,-1.218719,14.056396,-0.620575,1,4,1,1,4,84.000000
2023-05-23 12:31:29.207,,,,,,,,,,,,,,,,,,,,,,,,,,,,,,,,,,,,,,,/muse/elements/blink
2023-05-23 12:31:29.335,,,,,,,,,,,,,,,,,,,,,,,,,,,,,,,,,,,,,,,/muse/elements/jaw_clench
2023-05-23 12:31:29.858,0,0.826180136942255,0.7979502743219548,0,0,0.3045611752764951,0.4670650796347219,0,0,0.5773069188502067,0.6898302603138433,0,0,0.4973378075573872,0.7234442756288189,0,0,0.5696921690955397,0.7952426565069662,0,0,801.025641025641,808.2783882783883,0,754.6886446886447,568.9377289377289,-0.559387,0.011963,0.802551,0.590668,1.009369,3.872986,1,4,1,1,4,84.000000
2023-05-23 12:31:30.860,0,0.7704347755981977,0.1323379328121599,0,0,0.3347814756954176,-0.1344889783982487,0,0,0.508492732225484,0.1953198123990171,0,0,0.4790149876827117,0.6062197871289194,0,0,0.4993775033110631,0.6183351746931834,0,114.029304029304,791.7582417582418,802.2344322344322,268.3516483516484,805.0549450549451,613.6630036630037,-0.541504,0.004517,0.814148,1.996307,-2.706604,4.426270,1,4,1,1,4,84.000000
2023-05-23 12:31:31.869,0,0.2292160073447881,-0.4242282142159337,0,0,0.1015826047675751,-0.03170117103088094,0,0,0.2465317584847595,0.275287506564405,0,0,0.1666998815439501,0.1648365619338153,0,0,-0.01646189184676698,-0.1383568381252029,0,0,802.6373626373627,800.2197802197802,0,738.5714285714286,585.0549450549451,-0.519104,-0.043701,0.828064,1.719666,-1.196289,2.168274,1,4,1,1,4,84.000000
2023-05-23 12:31:32.779,,,,,,,,,,,,,,,,,,,,,,,,,,,,,,,,,,,,,,,/muse/elements/jaw_clench
2023-05-23 12:31:32.794,0,-0.1039375919160522,-0.4214793899785483,0,0,-0.005028913082679848,0.0367682498285273,0,0,0.2680730930166871,0.2138959871881316,0,0,0.1607720343035849,0.04787066651688125,0,0,-0.1493390152960122,-0.3429787218460908,0,23.36996336996337,807.8754578754579,801.8315018315019,26.19047619047619,855.8241758241759,702.7106227106227,-0.506714,-0.015076,0.842896,1.173859,-1.637421,2.661743,1,4,1,1,4,84.000000
2023-05-23 12:31:32.918,,,,,,,,,,,,,,,,,,,,,,,,,,,,,,,,,,,,,,,/muse/elements/jaw_clench
2023-05-23 12:31:33.804,0,-0.1665399222505292,-0.5358591993690118,0,0,-0.04954011708999304,-0.2792749702650824,0,0,0.1946073900875359,0.01064811333015272,0,0,0.05152448808577001,-0.07966518845167146,0,0,-0.1780338899246368,-0.3635590860934214,0,0,805.8608058608058,806.2637362637363,0,805.8608058608058,632.1978021978022,-0.496521,-0.051697,0.846313,1.779480,-1.577606,2.093506,1,4,1,1,4,84.000000
2023-05-23 12:31:34.794,0,-0.1089377006885579,-0.299706586956634,0,0,-0.03246725724007168,-0.3276443391748242,0,0,0.2346847504854054,0.003007566923302309,0,0,0.195209543090247,-0.08464626659745052,0,0,-0.2552063153169963,-0.3762205624093339,0,42.71062271062272,803.8461538461539,810.6959706959707,38.68131868131869,788.5347985347986,627.3626373626374,-0.487244,-0.043274,0.853943,1.585083,-0.127106,1.951447,1,4,1,1,4,84.000000
2023-05-23 12:31:35.863,0,0.0415880163049216,-0.09226269126480584,0,0,0.1654267342678352,-0.07932248160530782,0,0,0.4040970783889207,0.3251314050066787,0,0,0.1962637887877746,0.07621845227764464,0,0,-0.1991167202467778,-0.4127495347718544,0,0,794.5787545787546,802.2344322344322,0,799.0109890109891,632.1978021978022,-0.483643,-0.022522,0.854980,3.843079,-0.964508,6.796417,1,4,1,1,4,84.000000
2023-05-23 12:31:36.862,0,-0.1750521100240809,0.07829754762005926,0,0,0.1975916648565162,0.01459816013392685,0,0,0.3724647692815953,0.3193593213959866,0,0,0.09287575209329887,-0.009360895890664809,0,0,-0.2184118836918058,-0.5421755913747809,0,1623.809523809524,808.6813186813187,811.9047619047619,1624.212454212454,853.0036630036631,875.5677655677656,-0.472473,-0.002686,0.853394,1.218719,-1.712189,1.839294,1,4,1,1,4,84.000000
2023-05-23 12:31:37.862,0,-0.3196450510873169,-0.04522904435135915,0,0,0.04564795704861918,-0.08647864799010277,0,0,0.3024023733861493,0.2386188634871851,0,0,0.1535153281659796,0.01689153060692354,0,0,-0.09062733221393908,-0.4865295057771543,0,1624.212454212454,807.8754578754579,798.6080586080586,1625.421245421245,842.1245421245421,675.7142857142858,-0.469116,0.007568,0.869507,1.659851,0.321503,3.701019,1,4,1,1,4,84.000000
2023-05-23 12:31:38.842,0,-0.1455455659575189,0.3086537504234291,0,0,0.2729428481939595,0.05920194214249606,0,0,0.3517654879557284,0.3111510109704086,0,0,0.133987804946536,-0.01948862014200044,0,0,-0.05846397051718775,-0.3234115625664917,0,1623.809523809524,802.2344322344322,803.4432234432235,1624.212454212454,894.908424908425,754.2857142857143,-0.462036,0.004639,0.863953,1.218719,-0.874786,1.315918,1,4,1,1,4,84.000000
2023-05-23 12:31:39.827,0,-0.3424834090184839,-0.2845416493702687,0,0,0.2634644912120216,-0.132737169184688,0,0,0.3426562828803045,0.2525280416132503,0,0,0.08450243748648269,0.001367546416008389,0,0,-0.1441060869983976,-0.4357114209592929,0,0,795.3846153846154,800.6227106227107,0,770.4029304029305,786.5201465201466,-0.447510,0.011169,0.879150,3.431854,-1.585083,4.702911,1,4,1,1,4,84.000000
2023-05-23 12:31:40.823,0,-0.2450990389257135,-0.2851631262892599,0,0,0.2117213181809723,-0.3559527363201518,0,0,0.2281649528412136,0.06457820260368918,0,0,0.09989938178968646,-0.1185531966144738,0,0,-0.2189454322277992,-0.4027652895198762,0,0,807.4725274725275,804.2490842490843,10.47619047619048,801.8315018315019,662.4175824175825,-0.440491,-0.129761,0.872253,4.859924,2.609406,13.076935,1,4,1,1,4,84.000000
2023-05-23 12:31:41.851,0,0.008830051038288286,-0.3043393558209089,0,0,0.03308355927111748,-0.0373993020233345,0,0,0.2899787937988814,0.3604421818749282,0,0,0.1094683561343991,-0.1473813885388143,0,0,-0.1744224108165457,-0.375699390992422,0,1623.809523809524,794.981684981685,805.8608058608058,1624.212454212454,791.7582417582418,620.9157509157509,-0.404480,-0.118835,0.876282,1.988831,-0.530853,2.639313,1,4,1,1,4,84.000000
2023-05-23 12:31:42.829,0,-0.025429575709207,-0.05679732382676483,0,0,-0.01638504961356043,-0.09623743059685691,0,0,0.3077990084393216,0.3957992455443161,0,0,0.1083621283691488,-0.186064399046036,0,0,-0.1581042580236408,-0.5236750434483513,0,1623.809523809524,807.8754578754579,807.8754578754579,1624.212454212454,865.8974358974359,723.2600732600732,-0.421875,-0.112671,0.885193,1.241150,0.067291,1.383209,1,4,1,1,4,84.000000
2023-05-23 12:31:43.851,0,-0.3160111209377226,0.2609094452568751,0,0,0.4521323708902605,-0.09455986509830236,0,0,0.447121229768117,0.2937184470040738,0,0,0.1837798396914082,-0.09756097531534684,0,0,-0.1708865234964609,-0.5263745758779952,0,0,799.8168498168499,804.6520146520147,0,840.5128205128206,674.5054945054945,-0.411743,-0.127136,0.881531,2.295380,0.059814,3.499146,1,4,1,1,4,84.000000
2023-05-23 12:31:44.856,0,-0.3658917716156878,0.428433177083839,0,0,0.4683236733799019,-0.05420198439332919,0,0,0.4543756622170937,0.3329112387397202,0,0,0.08262123260091729,-0.08064696064866632,0,0,-0.3125231288736594,-0.484116121447371,0,0,805.4578754578755,804.6520146520147,0,856.2271062271062,689.4139194139194,-0.415649,-0.128906,0.872375,2.086029,-1.682281,3.215027,1,4,1,1,4,84.000000
2023-05-23 12:31:45.847,0,0.1434774779148752,0.05177283055875848,0,0,0.4302549457222919,0.07776143509061949,0,0,0.463243182872651,0.2138876507856933,0,0,-0.01367205153236689,-0.1388780303986644,0,0,-0.357200409015703,-0.6013763882442374,0,24.57875457875458,807.0695970695971,804.6520146520147,19.34065934065934,805.8608058608058,859.047619047619,-0.403442,-0.130737,0.891663,1.734619,1.218719,2.729034,1,4,1,1,4,84.000000
2023-05-23 12:31:46.843,0,0.02001508594123475,-0.04727408801628976,0,0,0.2957559277761152,-0.1316783841920283,0,0,0.4937945283707956,0.1009775548444338,0,0,0.1170199827405636,-0.1418266219463746,0,0,-0.2147746537711938,-0.5583900839630203,0,0,806.6666666666667,795.7875457875458,0,838.4981684981685,669.2673992673992,-0.405090,-0.132690,0.884277,2.100983,-1.069183,2.796326,1,4,1,1,4,84.000000
2023-05-23 12:31:47.813,0,-0.01670676325940839,0.09709835560065785,0,0,0.2775232738671311,-0.07006912122738676,0,0,0.4350272420531641,0.1826914204981331,0,0,0.1568979755110652,-0.1160039398538201,0,0,-0.2103514250789711,-0.5251091556096595,0,13.6996336996337,792.967032967033,803.040293040293,11.68498168498169,816.7399267399268,784.9084249084249,-0.403931,-0.131104,0.882507,1.248627,-0.650482,3.155212,1,4,1,1,4,84.000000
2023-05-23 12:31:48.829,0,0.02067566809243436,-0.007790270553069867,0,0,0.5017939419836711,0.1253999178396014,0,0,0.3792978048475246,0.1852779466876991,0,0,0.07937837545573082,-0.1821500382082755,0,0,-0.2687113935203908,-0.4483113525812863,0,0,799.4139194139194,807.8754578754579,0,825.6043956043957,663.6263736263736,-0.393982,-0.132690,0.890137,2.078552,-0.037384,3.499146,1,4,1,1,4,84.000000
2023-05-23 12:31:49.869,0,0.1234773837147947,-0.1604515303950854,0,0,0.1987000180285434,-0.05575051201303381,0,0,0.2750902889050952,-0.01903721287312057,0,0,0.04053313195453883,-0.1114614146009075,0,0,-0.1513192915096571,-0.5270392088552917,0,1623.809523809524,801.4285714285714,800.2197802197802,1624.212454212454,853.4065934065934,693.8461538461538,-0.403564,-0.125916,0.882751,1.772003,-0.418701,3.409424,1,4,1,1,4,84.000000
2023-05-23 12:31:50.869,0,0.1346212374188406,-0.3612653249386817,0,0,-0.02871549809002752,0.07716123598104971,0,0,0.2243596147334904,0.2991740897796855,0,0,0.1443284584656565,-0.1234459068197799,0,0,-0.05787274370227922,-0.4212870002096774,0,48.35164835164835,807.0695970695971,807.0695970695971,44.72527472527473,809.4871794871796,633.0036630036631,-0.403442,-0.128540,0.883911,2.235565,-0.695343,3.730927,1,4,1,1,4,84.000000
2023-05-23 12:31:51.363,,,,,,,,,,,,,,,,,,,,,,,,,,,,,,,,,,,,,,,/muse/elements/blink
2023-05-23 12:31:51.864,0,0.1176915458828665,0.5523645314723606,0,0,0.2164644715852612,0.3079036318777862,0,0,0.4065539286289396,0.4869331088489297,0,0,0.01679198767839373,0.06040715028152507,0,0,-0.2417783954882453,-0.6104138553743356,0,1624.212454212454,800.6227106227107,805.0549450549451,1624.212454212454,899.3406593406594,752.6739926739926,-0.393738,-0.135254,0.889038,1.472931,-1.480408,2.915955,1,4,1,1,4,84.000000
2023-05-23 12:31:52.869,0,0.01398615162561533,0.3851454204137736,0,0,0.3437278093110066,0.2983427240633151,0,0,0.6124400398819569,0.2427777117396536,0,0,0.01729935283718888,-0.1323266723937316,0,0,-0.1621102932529354,-0.5518047211138416,0,0,810.6959706959707,802.6373626373627,0,792.1611721611722,665.6410256410256,-0.396362,-0.135925,0.882935,1.727142,0.441132,3.768311,1,4,1,1,4,84.000000
2023-05-23 12:31:53.856,0,-0.09474733822309961,-0.3729805532202767,0,0,0.1621213917160526,0.0272865414445094,0,0,0.5545607223871379,0.197489010633649,0,0,0.1629955742979916,-0.2956223222848036,0,0,-0.2375886880570884,-0.3911476939142012,0,43.11355311355312,813.919413919414,804.2490842490843,37.06959706959707,880.4029304029305,690.6227106227107,-0.395630,-0.133240,0.889221,1.570129,-0.687866,3.170166,1,4,1,1,4,84.000000
2023-05-23 12:31:54.871,0,-0.08771630505137054,-0.2380538916626135,0,0,0.1335532696525862,-0.2376654941529462,0,0,0.4093016591968736,0.2306140133663573,0,0,0.1770906290116737,-0.2490575172087973,0,0,-0.2005648135899312,-0.4412116390909234,0,0,802.2344322344322,808.6813186813187,0,784.5054945054945,645.4945054945055,-0.406128,-0.125244,0.887817,1.876678,-0.605621,3.080444,1,4,1,1,4,84.000000
2023-05-23 12:31:55.854,0,0.1328857777416646,-0.08510146727443657,0,0,0.2444325766682704,-0.09528257928964737,0,0,0.3205730931160097,0.2046603127540302,0,0,0.09143122770278411,-0.05872841345751306,0,0,-0.1405840716615486,-0.4090900244382409,0,0,795.3846153846154,800.6227106227107,0,776.8498168498169,616.8864468864469,-0.386719,-0.140320,0.887756,2.332764,-0.463562,3.925323,1,4,1,1,4,84.000000
2023-05-23 12:31:56.855,0,-0.01537351224090539,0.06671309531342767,0,0,0.3040657795895554,-0.07122796554727666,0,0,0.337403505955295,0.2853226673662561,0,0,0.2043938854936062,0.025633637717451,0,0,-0.1485371766555915,-0.3625180916725553,0,0,810.2930402930403,810.2930402930403,0,852.1978021978023,691.4285714285714,-0.404480,-0.134338,0.881348,2.018738,-0.613098,3.424377,1,4,1,1,4,84.000000
2023-05-23 12:31:57.868,0,0.1721825631537028,0.3227558026294448,0,0,0.5945772138256329,0.03923039447269559,0,0,0.391571768791529,0.197564980547201,0,0,0.1825555171850765,-0.145796214621618,0,0,-0.2073477800350917,-0.4465975330583996,0,44.72527472527473,806.6666666666667,799.0109890109891,40.29304029304029,799.0109890109891,620.5128205128206,-0.406372,-0.133850,0.892151,2.115936,0.485992,2.482300,1,4,1,1,4,84.000000
2023-05-23 12:31:58.848,0,-0.3199998546829643,0.181069688471601,0,0,0.3148809664620515,-0.01484562784157103,0,0,0.3587529473985154,0.05422727807185398,0,0,0.09769878814107698,-0.08598696817589675,0,0,-0.3536729447490405,-0.4207895107115264,0,39.89010989010989,808.2783882783883,799.8168498168499,43.11355311355312,852.1978021978023,646.3003663003664,-0.389404,-0.129028,0.888000,2.153320,-0.874786,3.020630,1,4,1,1,4,84.000000
2023-05-23 12:31:59.783,0,-0.4040399082579094,-0.2391641458545303,0,0,0.2914374503863817,-0.2970970803747202,0,0,0.5087019630460923,0.1464059265591277,0,0,0.1283684620010165,0.00155115500861533,0,0,-0.4108717635420222,-0.4830265167747882,0,0,810.2930402930403,803.040293040293,1.208791208791209,755.4945054945055,565.3113553113553,-0.392944,-0.134460,0.880798,2.579498,-0.411224,3.244934,1,4,1,1,4,84.000000
2023-05-23 12:32:00.782,0,-0.4342026329353972,-0.09037954629871926,0,0,0.3185098309661049,-0.304982336133649,0,0,0.4965496320263277,0.1472232077151645,0,0,0.2352581007049788,-0.1508354354245164,0,0,-0.2552873268283592,-0.4995502498968583,0,31.83150183150183,808.6813186813187,809.0842490842491,38.27838827838828,856.6300366300367,767.985347985348,-0.391785,-0.123596,0.896179,2.078552,-0.403748,3.932800,1,4,1,1,4,84.000000
2023-05-23 12:32:01.861,0,-0.4335547245703895,0.07446029324867433,0,0,0.3527038967051421,-0.1229367605039845,0,0,0.3661699026250698,0.07780222805704412,0,0,0.1799466207246193,-0.1619955844607175,0,0,-0.2371940487525128,-0.3966396858332206,0,0,793.3699633699634,801.025641025641,0,861.0622710622711,700.2930402930403,-0.387268,-0.128357,0.887085,2.265472,-1.495361,3.357086,1,4,1,1,4,84.000000
2023-05-23 12:32:02.858,0,-0.05178569297782865,0.08670893557479112,0,0,0.4618273158571845,-0.04440864198527355,0,0,0.6269702965723342,0.02691964888536067,0,0,0.08383608047831051,-0.09708840711354207,0,0,-0.2234571838077865,-0.5146735077863226,0,0,796.1904761904763,801.8315018315019,0,803.040293040293,660,-0.383301,-0.136475,0.898987,2.362671,-0.710297,4.082336,1,4,1,1,4,84.000000
2023-05-23 12:32:03.868,0,-0.009223380955224807,0.07051655908385875,0,0,0.3734841131530219,-0.2398631751666461,0,0,0.5948563980959533,0.241150309945803,0,0,0.3004267839405851,-0.1035253808481292,0,0,-0.1069408989990707,-0.4476224222267638,0,1623.809523809524,798.2051282051282,808.6813186813187,1624.212454212454,821.1721611721612,676.1172161172161,-0.380066,-0.125671,0.891235,2.153320,-1.405640,3.544006,1,4,1,1,4,84.000000
2023-05-23 12:32:04.872,0,0.2121515985231609,0.7390178247280631,0,0,0.1469888884464329,-0.009878032461765661,0,0,0.240945872888838,0.3357229773552858,0,0,0.1735012884239872,-0.1182587654459348,0,0,-0.1710026243110641,-0.3264851103931818,0,86.22710622710623,797.3992673992674,802.6373626373627,22.56410256410257,762.7472527472528,595.1282051282052,-0.042725,-0.115662,0.984070,4.044952,-22.385559,0.628052,1,4,1,1,4,84.000000
2023-05-23 12:32:05.867,,,,,,,,,,,,,,,,,,,,,,,,,,,,,,,,,,,,,,,/muse/elements/jaw_clench
2023-05-23 12:32:05.878,0,0.4570657598717995,0.5636262438497098,0,0,0.3269340858783613,0.4811963948340669,0,0,0.3469599945855716,0.3792876204243686,0,0,-0.08764644850128558,-0.1305314193439141,0,0,-0.2454979862502868,-0.3574772976130499,0,0,815.5311355311355,842.5274725274726,0,864.6886446886447,669.2673992673992,0.257935,-0.101685,0.966919,1.039276,-0.441132,3.678589,1,4,1,1,4,84.000000
2023-05-23 12:32:06.221,,,,,,,,,,,,,,,,,,,,,,,,,,,,,,,,,,,,,,,/muse/elements/blink
2023-05-23 12:32:06.700,,,,,,,,,,,,,,,,,,,,,,,,,,,,,,,,,,,,,,,/muse/elements/blink
2023-05-23 12:32:06.835,0,0.7357132013166986,0.3987923529213134,0,0,0.2791447490049643,0.5603574703801951,0,0,0.2200911721058414,0.2986315071424162,0,0,-0.0938598026379443,0.07341020844532961,0,0,-0.2547225801370491,-0.4085399454840871,0,1623.809523809524,804.2490842490843,820.3663003663004,1624.212454212454,828.4249084249085,795.3846153846154,0.257812,-0.082214,0.957825,2.295380,0.986938,3.798218,1,4,1,1,4,84.000000
2023-05-23 12:32:06.957,,,,,,,,,,,,,,,,,,,,,,,,,,,,,,,,,,,,,,,/muse/elements/jaw_clench
2023-05-23 12:32:07.832,,,,,,,,,,,,,,,,,,,,,,,,,,,,,,,,,,,,,,,/muse/elements/jaw_clench
2023-05-23 12:32:07.839,0,0.3768117003116223,0.328215950851846,0,0,-0.05730770009140803,0.07476320921636233,0,0,0.2353643410045051,0.199515502230734,0,0,0.1525792303260557,0.01121227711544677,0,0,-0.1470906394903332,-0.426616288986604,0,1623.809523809524,794.1758241758242,794.981684981685,1624.212454212454,767.5824175824176,620.5128205128206,0.247314,-0.087769,0.957458,1.809387,-0.134583,3.618774,1,4,1,1,4,84.000000
2023-05-23 12:32:08.872,0,0.2684728971946856,0.2525925948728939,0,0,0.05532050836119801,-0.001104306103679888,0,0,0.3067751361660279,0.1820891917836649,0,0,0.08379079321012906,-0.05628972667294819,0,0,-0.1051382670820319,-0.3784225346293544,0,0,796.1904761904763,804.2490842490843,35.45787545787546,798.6080586080586,689.0109890109891,0.250732,-0.092102,0.952820,1.914062,-0.224304,3.454285,1,4,1,1,4,84.000000
2023-05-23 12:32:09.867,0,0.3386068026180247,0.05938954783785341,0,0,0.1273929998289711,-0.02632807510694294,0,0,0.3621415535479784,-0.03313359822542401,0,0,0.1561210085652928,-0.1548911101553435,0,0,-0.1317326552031706,-0.3281739344733285,0,1624.212454212454,803.040293040293,807.0695970695971,1624.212454212454,811.5018315018315,666.4468864468864,0.263855,-0.083862,0.961304,2.392578,1.256104,4.074860,1,4,1,1,4,84.000000
2023-05-23 12:32:10.819,0,0.1987073472438105,0.09941605448010098,0,0,-0.2119435521786026,-0.1859587947269058,0,0,0.3109897443564801,0.08373910256477567,0,0,0.2103226466885927,-0.02078672245938179,0,0,-0.01921997308544546,-0.368588728224243,0,1.611721611721612,799.4139194139194,799.4139194139194,44.72527472527473,794.5787545787546,603.5897435897436,-0.380859,-0.064087,0.868164,4.987030,40.815887,9.869385,1,4,1,1,4,84.000000
2023-05-23 12:32:11.902,0,0.7235730135205168,0.2974945394572912,0,0,0.3785844003183045,-0.2734972882146655,0,0,0.5734390387705868,-0.0269335228360765,0,0,0.2153799770608599,0.01336574919036551,0,0,-0.1547101829586039,-0.2119344563359534,0,1629.047619047619,807.8754578754579,805.8608058608058,1628.241758241758,824.3956043956044,685.7875457875458,-0.519409,-0.116394,0.823059,1.286011,-3.177643,2.990723,1,4,1,1,4,84.000000
2023-05-23 12:32:12.822,0,0.8194075825241938,0.133917387460392,0,0,0.2723710980079983,-0.1978652517379934,0,0,0.5670393437688742,0.0997482123534346,0,0,0.1969091911432097,0.07749531854608931,0,0,-0.195365314197434,-0.3581548831701983,0,35.45787545787546,807.4725274725275,785.3113553113553,49.96336996336996,777.2527472527473,632.1978021978022,-0.483276,-0.230957,0.821960,2.796326,-2.549591,3.603821,1,4,1,1,4,84.000000
2023-05-23 12:32:13.818,0,0.2918509166232092,0.137602990184264,0,0,-0.1720365903904236,0.02452909416687577,0,0,0.2750497637253332,0.2587964681111156,0,0,0.126213254011098,0.1043910458818017,0,0,-0.2171266509624451,-0.442545381272635,0,0,808.2783882783883,801.8315018315019,0,885.2380952380953,718.8278388278388,-0.482422,-0.167297,0.834778,4.927216,-0.336456,7.439423,1,4,1,1,4,84.000000
2023-05-23 12:32:14.846,0,-0.07042211048059091,-0.1159639339370573,0,0,-0.06326651104247416,0.05328577211453037,0,0,0.2983184453847768,-0.06786760999771772,0,0,0.1648398892544078,-0.005347508305953055,0,0,-0.08819405292334404,-0.3413100151011385,0,53.58974358974359,802.2344322344322,807.8754578754579,48.35164835164835,854.6153846153846,685.3846153846154,-0.454285,-0.191162,0.849792,1.592560,-1.203766,1.973877,1,4,1,1,4,84.000000
2023-05-23 12:32:15.698,,,,,,,,,,,,,,,,,,,,,,,,,,,,,,,,,,,,,,,/muse/elements/jaw_clench
2023-05-23 12:32:15.807,0,-0.4063889631232206,0.2110855462075197,0,0,-0.1545367986179104,-0.0869264294692477,0,0,0.2061251913744223,0.3345720631845587,0,0,0.08002583102581284,0.01204612650454255,0,0,-0.1636199476182321,-0.4145045065049763,0,0,810.2930402930403,820.3663003663004,0,867.1062271062272,723.6630036630037,-0.202332,-0.163025,0.978943,11.200256,-24.942627,-2.250519,1,4,1,1,4,84.000000
2023-05-23 12:32:16.056,,,,,,,,,,,,,,,,,,,,,,,,,,,,,,,,,,,,,,,/muse/elements/jaw_clench
2023-05-23 12:32:16.835,,,,,,,,,,,,,,,,,,,,,,,,,,,,,,,,,,,,,,,/muse/elements/blink
2023-05-23 12:32:16.856,0,0.5393990964741614,0.912619648154224,0,0,0.2300960529867044,0.3271951274611059,0,0,0.4355328175171061,0.451589308601617,0,0,0.1247877276162844,-0.04272211274007524,0,0,-0.1886650608508346,-0.2827748437546324,0,0,803.4432234432235,785.3113553113553,1.611721611721612,853.4065934065934,686.1904761904763,-0.233459,0.067078,0.956177,6.243134,-28.568878,-3.177643,1,4,1,1,4,84.000000
2023-05-23 12:32:17.836,0,0.6532754257409182,0.9323584561369218,0,0,0.3356305860139038,0.4767356412699463,0,0,0.3866859769063405,0.3667622950435344,0,0,-0.02180000916082428,0.06982961799504511,0,0,-0.127934241864021,-0.5877619051061819,0,1623.809523809524,805.8608058608058,806.6666666666667,1624.212454212454,907.8021978021978,1020.622710622711,-0.047852,-0.213013,1.302979,4.291687,-5.824432,15.230255,1,4,1,1,4,84.000000
2023-05-23 12:32:18.582,,,,,,,,,,,,,,,,,,,,,,,,,,,,,,,,,,,,,,,/muse/elements/blink
2023-05-23 12:32:18.886,0,0.412513154958779,1.163599935908236,0,0,0.08492735172486156,0.5374917624575644,0,0,0.386836866391625,0.3169398387241687,0,0,-0.007784577682504216,0.03797513109465618,0,0,-0.103578446608358,-0.5064645387211542,0,1623.809523809524,806.2637362637363,809.8901098901099,1624.212454212454,858.2417582417582,669.6703296703297,0.017944,-0.050720,1.003418,4.314117,1.921539,1.166382,1,4,1,1,4,84.000000
2023-05-23 12:32:19.614,,,,,,,,,,,,,,,,,,,,,,,,,,,,,,,,,,,,,,,/muse/elements/jaw_clench
2023-05-23 12:32:19.860,0,0.06587284406123994,0.5636743467116776,0,0,0.1686434649121776,0.2758496267867575,0,0,0.366892175499858,0.2516130060307985,0,0,-0.02477949388722101,-0.1159177417366351,0,0,-0.03130235301009326,-0.4786919410342174,0,0,792.967032967033,799.0109890109891,40.29304029304029,889.6703296703297,769.5970695970697,0.105652,-0.033203,0.993591,3.162689,-1.577606,6.826324,1,4,1,1,4,84.000000
2023-05-23 12:32:19.978,,,,,,,,,,,,,,,,,,,,,,,,,,,,,,,,,,,,,,,/muse/elements/jaw_clench
2023-05-23 12:32:20.826,0,0.08364523075476461,0.4906646097675449,0,0,0.25303717013309,0.3100915568639651,0,0,-0.02202501843036561,0.04216920512831238,0,0,-0.06839512991018544,-0.06820439141582915,0,0,0.06465808053138283,-0.4214407817431572,0,37.87545787545788,798.6080586080586,801.8315018315019,0,761.1355311355312,559.6703296703297,0.115845,-0.061096,0.988464,3.080444,-1.405640,3.125305,1,4,1,1,4,84.000000
2023-05-23 12:32:21.827,0,-0.215677567574638,0.7693237669038858,0,0,0.04941482311779462,0.3713011824816044,0,0,0.3696398434769782,0.6348900344557319,0,0,0.395934043721246,0.8336417396720488,0,0,0.5270721218536641,0.500395451715047,0,1623.809523809524,798.2051282051282,810.2930402930403,1624.212454212454,867.9120879120879,726.0805860805862,0.114624,-0.040405,0.985413,2.243042,-0.717773,4.508514,1,4,1,1,4,84.000000
2023-05-23 12:32:22.814,0,-0.01537464006796183,0.5835624064396925,0,0,0.2323267802748636,0.2322205746185717,0,0,0.3854641679197214,0.6998698683114557,0,0,0.3449955725049773,0.6019741987309914,0,0,0.3932247899761461,0.4134415276319255,0,1633.479853479854,802.2344322344322,807.4725274725275,1635.091575091575,787.3260073260074,811.0989010989011,0.102417,-0.040894,0.985962,1.809387,-0.979462,4.067383,1,4,1,1,4,84.000000
2023-05-23 12:32:23.544,,,,,,,,,,,,,,,,,,,,,,,,,,,,,,,,,,,,,,,/muse/elements/jaw_clench
2023-05-23 12:32:23.868,0,0.07807546571479726,0.1077999955196345,0,0,0.004242739776509591,-0.1951417577654616,0,0,0.4267268792794147,0.3474427283273525,0,0,0.1618765936429634,0.2047039792642102,0,0,-0.009346412970689858,-0.0578951859161514,0,618.901098901099,800.6227106227107,810.6959706959707,552.8205128205128,871.5384615384615,706.7399267399268,0.117126,-0.043213,0.983398,1.786957,0.186920,4.082336,1,4,1,1,4,84.000000
2023-05-23 12:32:24.883,0,-0.05857751054046102,0.1747484678647999,0,0,0.1238196128923114,0.2407367975642039,0,0,0.4312237000226503,0.3309347549893547,0,0,0.1724250501852011,-0.18130549421683,0,0,-0.2284268200433568,-0.4083398556338703,0,1624.212454212454,800.6227106227107,805.8608058608058,1624.212454212454,840.9157509157509,699.0842490842491,0.113831,-0.037537,0.988586,2.474823,1.046753,4.187012,1,4,1,1,4,84.000000
2023-05-23 12:32:25.812,0,0.1121841366640273,0.5999257930596573,0,0,0.4001513118731618,0.4662258607763846,0,0,0.5819781295321729,0.3222990877621815,0,0,0.09882179074084638,-0.225129213730734,0,0,-0.2745432776333811,-0.4291088562093996,0,1613.736263736264,819.96336996337,798.6080586080586,1616.556776556777,832.8571428571429,718.4249084249085,0.112366,-0.041809,0.982727,1.996307,-0.104675,3.596344,1,4,1,1,4,84.000000
2023-05-23 12:32:26.873,0,0.3294074831941606,0.6587346116109446,0,0,0.6131749396961956,0.3979231827871631,0,0,0.5975673728919735,0.2031195727499492,0,0,0.05271318682861766,-0.05513489419157536,0,0,-0.2194281497685625,-0.2932585047328156,0,1623.809523809524,810.2930402930403,802.6373626373627,1624.212454212454,845.7509157509157,678.1318681318681,0.097778,-0.042786,0.987000,2.228088,-0.538330,2.930908,1,4,1,1,4,84.000000
2023-05-23 12:32:27.850,0,-0.1025615567272643,0.03045340144099201,0,0,0.2274155034820551,0.04800283275317246,0,0,0.4653002401388986,0.190741758962392,0,0,0.0109964140074085,-0.07670155572246644,0,0,-0.2636469565247645,-0.3915574776551842,0,29.41391941391942,797.8021978021978,810.2930402930403,1624.212454212454,821.1721611721612,656.3736263736264,0.095703,-0.038391,0.986938,1.839294,-0.964508,3.439331,1,4,1,1,4,84.000000
2023-05-23 12:32:28.853,0,0.005858835029200292,-0.0231749509616463,0,0,0.310469895268668,-0.03974557488000442,0,0,0.3941742491843605,0.01280515898363131,0,0,0.04521211168255547,0.03328624175929323,0,0,-0.1825247538905938,-0.2632242155774709,0,0,803.8461538461539,798.6080586080586,25.38461538461539,793.3699633699634,857.4358974358975,-0.012207,-0.065002,0.994995,-2.048645,13.226471,-2.871094,1,4,1,1,4,84.000000
2023-05-23 12:32:29.847,0,-0.03385466037156958,-0.07717677570365633,0,0,0.05276538453830406,-0.1813112656310553,0,0,0.3891512677342722,0.094419864634082,0,0,0.006937735370153057,-0.1214548014005202,0,0,-0.08462294227426902,-0.3623558284682638,0,1623.809523809524,800.6227106227107,807.4725274725275,1624.212454212454,821.5750915750916,676.9230769230769,-0.103577,-0.054077,0.983154,4.052429,-2.691650,6.153412,1,4,1,1,4,84.000000
2023-05-23 12:32:30.196,,,,,,,,,,,,,,,,,,,,,,,,,,,,,,,,,,,,,,,/muse/elements/jaw_clench
2023-05-23 12:32:30.833,0,0.01733071213088777,-0.08824178918557826,0,0,0.07857859587093791,-0.006975686572076215,0,0,0.3903841889743184,0.1795656329718988,0,0,0.1231971795278979,-0.2464171539635367,0,0,-0.08181283316033554,-0.4345972565864699,0,1623.809523809524,809.0842490842491,809.4871794871796,1624.212454212454,871.5384615384615,699.8901098901099,-0.113098,-0.043884,0.989990,2.781372,1.480408,5.061798,1,4,1,1,4,84.000000
2023-05-23 12:32:31.831,0,0.4084915840324223,0.1176786105558816,0,0,0.6045268240895906,0.3049113824639292,0,0,0.4638123111119065,0.2504210670696056,0,0,0.1769969442681719,-0.1459959503933174,0,0,-0.1664018125088877,-0.4058818824527092,0,1599.230769230769,797.3992673992674,812.7106227106227,1508.168498168498,850.1831501831502,658.3882783882784,-0.096375,-0.045044,0.985840,2.527161,-1.173859,3.566437,1,4,1,1,4,84.000000
2023-05-23 12:32:32.869,0,0.3457029504148617,0.3311599467052128,0,0,0.7005718576915612,0.4583916875163241,0,0,0.5570951923485278,0.4523540707918036,0,0,0.148969728820424,-0.1326802060194538,0,0,-0.182575900717181,-0.5418348324408344,0,1623.809523809524,805.0549450549451,796.1904761904763,1624.212454212454,895.7142857142858,745.0183150183151,-0.119263,-0.060181,0.985718,1.966400,-0.680389,4.194489,1,4,1,1,4,84.000000
2023-05-23 12:32:33.866,0,0.1352643689675399,0.2572846807816817,0,0,0.5143733540096598,0.4075481277867473,0,0,0.5880490965613994,0.4614918343292055,0,0,0.1887636019329126,-0.1314085152487849,0,0,-0.2553419239599573,-0.4048194880622626,0,1569.81684981685,803.8461538461539,810.6959706959707,1568.608058608059,860.2564102564103,722.0512820512821,-0.109985,-0.042480,0.968567,2.631836,-2.205658,4.463654,1,4,1,1,4,84.000000
2023-05-23 12:32:34.871,0,-0.2423348957484396,-0.1112899274836768,0,0,0.293124851028901,0.08093019503328519,0,0,0.442199293862398,0.2236812386168128,0,0,0.06936398390001799,-0.1312421071062176,0,0,-0.3295373456790285,-0.4155222806113128,0,12.89377289377289,803.4432234432235,799.4139194139194,14.50549450549451,859.047619047619,686.5934065934066,-0.120789,-0.030945,0.973755,2.048645,-0.889740,3.745880,1,4,1,1,4,84.000000
2023-05-23 12:32:35.247,,,,,,,,,,,,,,,,,,,,,,,,,,,,,,,,,,,,,,,/muse/elements/jaw_clench
2023-05-23 12:32:35.859,0,0.07123596077301662,0.3853974733959115,0,0,0.07387979346538448,0.04731627918819151,0,0,0.2494568920598722,0.1768106115023536,0,0,0.1057766111837826,-0.04234203615865705,0,0,-0.2403233296830801,-0.2557666489964535,0,0,797.8021978021978,797.3992673992674,0,853.8095238095239,743.0036630036631,-0.027405,-0.052368,0.991882,1.465454,-0.904694,3.536530,1,4,1,1,4,84.000000
2023-05-23 12:32:36.866,0,0.2566796786223563,0.5686673488158804,0,0,0.2793410345935259,-0.04574524327023752,0,0,0.2467630611392709,0.1503711008525598,0,0,0.1347733270747591,-0.1275941228823267,0,0,-0.2083429011879177,-0.3486271248502487,0,1565.787545787546,803.040293040293,811.5018315018315,1576.263736263736,804.2490842490843,684.1758241758242,-0.021545,-0.030945,0.989014,3.304749,-2.459869,4.867401,1,4,1,1,4,84.000000
2023-05-23 12:32:37.368,,,,,,,,,,,,,,,,,,,,,,,,,,,,,,,,,,,,,,,/muse/elements/jaw_clench
2023-05-23 12:32:37.873,0,0.1799839961505318,0.4437023416401899,0,0,0.332228187369817,0.1929691815035473,0,0,0.3090563640713315,0.3243859747776119,0,0,0.1436794115116904,-0.1785984390602508,0,0,-0.1594493443039135,-0.3911056104166452,0,1623.809523809524,819.5604395604396,800.6227106227107,1624.212454212454,810.6959706959707,672.0879120879121,-0.017090,-0.032837,0.983459,2.213135,0.358887,3.872986,1,4,1,1,4,84.000000
2023-05-23 12:32:38.869,0,0.5559774711529396,0.6235119456654364,0,0,0.2437351664830889,-0.06200436710325648,0,0,0.3092041316322767,0.2522893329941876,0,0,0.09285897519002546,-0.1315289553851028,0,0,-0.1888414814380853,-0.3827251717479975,0,0,802.2344322344322,803.040293040293,0,825.2014652014652,736.1538461538462,0.004639,-0.029053,1.002380,1.682281,-0.971985,3.140259,1,4,1,1,4,84.000000
2023-05-23 12:32:39.867,0,0.3458230851901054,0.5733212652165718,0,0,0.375938511570631,-0.01852358005188478,0,0,0.3641534512340421,0.2846693046422331,0,0,0.1610898179389777,-0.04473894164005793,0,0,-0.09944355554363835,-0.361344576013137,0,731.7216117216118,800.2197802197802,811.9047619047619,771.2087912087912,884.8351648351648,716.4102564102565,0.016479,-0.027588,0.989075,2.968292,-2.056122,4.074860,1,4,1,1,4,84.000000
2023-05-23 12:32:40.854,0,0.1312229037553825,-0.0686764784702739,0,0,0.1130537786541412,-0.2790880859204582,0,0,0.2937123834685053,0.04082345648233392,0,0,0.2138479601818913,-0.2890158047719196,0,0,-0.06476618530171438,-0.3842713266001185,0,0,802.6373626373627,809.0842490842491,0,804.2490842490843,651.941391941392,0.006897,-0.017212,0.979126,2.168274,-2.676697,2.654266,1,4,1,1,4,84.000000
2023-05-23 12:32:41.738,,,,,,,,,,,,,,,,,,,,,,,,,,,,,,,,,,,,,,,/muse/elements/jaw_clench
2023-05-23 12:32:41.870,0,-0.2826371032844077,-0.2804130911155978,0,0,-0.003095940917305241,-0.1516418405419714,0,0,0.3544506760716923,0.0563936192768597,0,0,0.1383321200892214,-0.02071513231065921,0,0,-0.1306759308135821,-0.5820967513655544,0,1623.809523809524,805.0549450549451,808.2783882783883,1624.212454212454,847.7655677655678,691.4285714285714,0.040344,-0.032166,0.997131,2.489777,-1.809387,4.336548,1,4,1,1,4,84.000000
2023-05-23 12:32:42.791,0,-0.4359484241192469,0.09879880204293685,0,0,0.1810425347964084,0.07748509128000139,0,0,0.3783694665097558,0.09611571278888512,0,0,0.1556295244538249,-0.02941914769568896,0,0,-0.2073953797650291,-0.7461342823887831,0,0,808.2783882783883,810.6959706959707,0,823.1868131868132,651.1355311355312,0.051086,-0.018250,1.002808,2.048645,-2.145844,4.194489,1,4,1,1,4,84.000000
2023-05-23 12:32:43.508,,,,,,,,,,,,,,,,,,,,,,,,,,,,,,,,,,,,,,,/muse/elements/blink
2023-05-23 12:32:43.862,0,-0.1457695415704312,0.2125457195155403,0,0,0.2598107084571387,0.06703783877341167,0,0,0.2522040930671425,-0.01671794055298197,0,0,0.09197259955474678,-0.07626863105818617,0,0,-0.3234224790173729,-0.5318079925050935,0,1623.809523809524,810.6959706959707,806.2637362637363,1624.212454212454,806.2637362637363,649.1208791208792,0.061035,-0.008423,0.999939,1.121521,-3.521576,2.564545,1,4,1,1,4,84.000000
2023-05-23 12:32:44.853,0,-0.03130823077666017,-0.203264452259609,0,0,0.09844536298406989,-0.1557049002622441,0,0,0.249736307212599,0.001177453199321704,0,0,0.08845778966192015,-0.2763140346516068,0,0,-0.306524260638719,-0.4294315971935848,0,0,804.2490842490843,803.040293040293,0,780.0732600732601,811.5018315018315,0.115784,-0.026794,0.967957,2.429962,-0.112152,3.013153,1,4,1,1,4,84.000000
2023-05-23 12:32:45.828,0,-0.06365015284373496,0.05883961890215836,0,0,0.005113684849732949,-0.09017838706680063,0,0,0.2620501677775161,0.03456548260932851,0,0,0.08214713374129348,-0.4233299616245303,0,0,-0.1500509429125306,-0.3516685182356898,0,16.52014652014652,803.4432234432235,796.5934065934066,8.461538461538462,735.7509157509157,608.8278388278388,0.108643,0.000793,0.986450,1.218719,-0.059814,3.319702,1,4,1,1,4,84.000000
2023-05-23 12:32:46.823,0,-0.2369524223773247,0.1367546653416953,0,0,0.03649986394840943,-0.01484898831583893,0,0,0.2353948736870348,0.01243011715982834,0,0,0.003015647496164513,-0.07151882139316715,0,0,-0.1360020763071076,-0.4095449699143442,0,17.32600732600732,801.4285714285714,811.5018315018315,18.93772893772894,833.2600732600733,684.5787545787546,0.085083,0.001709,0.984375,2.452393,1.929016,3.282318,1,4,1,1,4,84.000000
2023-05-23 12:32:47.551,,,,,,,,,,,,,,,,,,,,,,,,,,,,,,,,,,,,,,,/muse/elements/jaw_clench
2023-05-23 12:32:47.791,0,-0.3676566045302871,-0.01450488217750842,0,0,0.1793062678697789,-0.143267081477546,0,0,0.4883523241536372,0.1471472347738652,0,0,0.0648841344023844,-0.003213403094749819,0,0,-0.248918937815688,-0.3827607954766749,0,0,795.3846153846154,804.6520146520147,0,778.0586080586081,618.0952380952381,0.072205,-0.003784,0.982727,1.472931,0.508423,2.407532,1,4,1,1,4,84.000000
2023-05-23 12:32:48.864,0,-0.3265631294307254,0.3346547491137821,0,0,0.2430333686104931,0.3439645258812057,0,0,0.4629308980167468,0.2680855584210512,0,0,0.2267301186690521,-0.05971073673433313,0,0,-0.1824636288848176,-0.3425377779084898,0,0,805.8608058608058,794.981684981685,4.835164835164836,776.4468864468864,592.7106227106227,0.060486,0.010010,0.993164,3.005676,1.211243,3.297272,1,4,1,1,4,84.000000
2023-05-23 12:32:49.115,,,,,,,,,,,,,,,,,,,,,,,,,,,,,,,,,,,,,,,/muse/elements/blink
2023-05-23 12:32:49.871,0,-0.3077329142709731,0.2086033826608772,0,0,0.04361528805981638,0.1561084219973414,0,0,0.3704258799836708,0.2799848454015842,0,0,0.1852547042311657,-0.103144879661841,0,0,-0.09545082757878653,-0.4244635210566276,0,5.238095238095238,802.2344322344322,799.0109890109891,4.029304029304029,766.7765567765568,638.6446886446887,0.025330,-0.001221,0.968262,0.508423,2.011261,1.749573,1,4,1,1,4,84.000000
2023-05-23 12:32:50.855,0,-0.2702841870431368,0.08139530271852573,0,0,-0.02953247064253423,0.02039776797802708,0,0,0.3505464983556473,0.3719263213490643,0,0,0.0505699440797424,-0.2754908071230005,0,0,-0.06042430202895333,-0.4930337436521111,0,0,788.9377289377289,809.0842490842491,0,838.0952380952381,646.7032967032967,0.035583,-0.009827,1.020081,4.239349,-8.157196,5.831909,1,4,1,1,4,84.000000
2023-05-23 12:32:51.226,,,,,,,,,,,,,,,,,,,,,,,,,,,,,,,,,,,,,,,/muse/elements/jaw_clench
2023-05-23 12:32:51.868,0,0.02324575040555972,-0.1232803549748476,0,0,0.3327400864930449,0.08051005639257403,0,0,0.3438883080161781,0.373004316667551,0,0,0.1367357332265924,-0.1599144404265791,0,0,-0.236308709129569,-0.4750496424383319,0,51.57509157509158,805.4578754578755,799.0109890109891,54.39560439560439,776.0439560439561,580.2197802197802,-0.013733,-0.030884,0.924194,2.108459,3.775787,3.416901,1,4,1,1,4,84.000000
2023-05-23 12:32:52.870,0,-0.2342163160681572,-0.02695724224856291,0,0,0.1832429749651204,-0.2630204084186124,0,0,0.3832822683994696,-0.1365295949009672,0,0,0.1352577923000751,-0.1927679561276836,0,0,-0.1374947316752084,-0.3357749230077556,0,53.58974358974359,804.6520146520147,809.4871794871796,56.00732600732601,761.1355311355312,626.5567765567765,0.048706,-0.012451,1.000427,-0.082245,-2.123413,0.381317,1,4,1,1,4,84.000000
2023-05-23 12:32:53.494,,,,,,,,,,,,,,,,,,,,,,,,,,,,,,,,,,,,,,,/muse/elements/blink
2023-05-23 12:32:53.870,0,-0.05812290331850058,-0.3698446150022667,0,0,0.06307503354359906,-0.1389616800798324,0,0,0.2134885561651317,0.1101046332907138,0,0,0.1328487979142153,-0.1716426299451976,0,0,-0.2288787657333395,-0.4785165204961799,0,0,802.6373626373627,811.0989010989011,0,780.4761904761905,647.9120879120879,0.030640,0.010437,0.984314,1.757050,-1.084137,3.970184,1,4,1,1,4,84.000000
2023-05-23 12:32:54.867,0,0.2441967163374496,-0.4060102154798665,0,0,0.3622877056217825,-0.002065623564790123,0,0,0.2674180291171566,0.1449501041242557,0,0,0.07822224719079476,-0.1744393870705459,0,0,-0.3175736263313408,-0.5467171138822213,0,1623.809523809524,805.4578754578755,811.0989010989011,1624.212454212454,837.2893772893773,807.4725274725275,0.025574,0.008179,0.998718,0.665436,-1.727142,2.781372,1,4,1,1,4,84.000000
2023-05-23 12:32:55.881,0,0.03177717087963391,-0.2376101937659819,0,0,0.3161053140501158,-0.1347441233962779,0,0,0.1278978075262281,0.274704605249514,0,0,0.2437621635452652,-0.1154384814588103,0,0,-0.2728740508542587,-0.4874415757674913,0,4.835164835164836,796.1904761904763,807.0695970695971,8.058608058608058,822.7838827838829,664.4322344322344,0.001953,0.020935,1.080139,4.927216,-9.129181,3.454285,1,4,1,1,4,84.000000
2023-05-23 12:32:56.868,0,0.01904438299015309,-0.3028693313497483,0,0,0.263457989681535,0.1421507882872731,0,0,0.2139188632619829,0.509619753364687,0,0,0.2059530149937546,-0.1307850675361441,0,0,-0.2410757810925524,-0.5351873515050675,0,1623.809523809524,790.952380952381,809.8901098901099,1624.212454212454,821.1721611721612,664.4322344322344,0.022400,0.029663,1.004883,3.730927,-2.549591,7.088013,1,4,1,1,4,84.000000
2023-05-23 12:32:57.869,0,0.1492917639391754,-0.007603793363326229,0,0,0.4475135769819095,0.3914875365659228,0,0,0.4118079720328001,0.4957756512885516,0,0,0.1777736091881029,-0.1853405830650481,0,0,-0.242171256879797,-0.6049964559745442,0,0,798.2051282051282,805.4578754578755,0,894.908424908425,801.8315018315019,-0.000610,-0.029175,0.949219,0.777588,1.562653,0.373840,1,4,1,1,4,84.000000
2023-05-23 12:32:58.847,0,0.0529079812115831,-0.08704355880206041,0,0,0.2920818727364203,-0.07105809840552728,0,0,0.4016482010016654,0.1549927231293968,0,0,0.02184174764324492,-0.1247101357068781,0,0,-0.3035865027962154,-0.4091387274840613,0,1623.809523809524,794.981684981685,801.025641025641,1624.212454212454,772.4175824175825,629.3772893772893,0.060303,0.018494,1.011414,0.702820,0.710297,1.674805,1,4,1,1,4,84.000000
2023-05-23 12:32:59.829,0,0.04631145790813961,-0.1838170671699777,0,0,0.1293734644250412,0.1819004759359398,0,0,0.04772678143581239,0.1293302587842701,0,0,-0.03597848000049785,-0.08587330577618463,0,0,-0.3629721114412341,-0.4241667560133922,0,1623.809523809524,805.0549450549451,802.6373626373627,1624.212454212454,848.974358974359,662.8205128205128,0.005310,0.007141,1.011414,3.072968,-8.030090,4.702911,1,4,1,1,4,84.000000
2023-05-23 12:33:00.868,0,-0.2533137972146799,-0.4315777911770861,0,0,0.01066794627925705,0.1977876790327477,0,0,0.07321739754207435,-0.1069221054293687,0,0,0.1055775430024655,-0.07342179455134926,0,0,-0.2464231457165785,-0.5722729220005494,0,1624.212454212454,810.6959706959707,803.8461538461539,1619.78021978022,807.0695970695971,683.7728937728938,0.015686,-0.003418,0.935242,4.807587,1.734619,6.893616,1,4,1,1,4,84.000000
2023-05-23 12:33:01.871,0,-0.5081946002749328,-0.07744440761832265,0,0,-0.06598908062474333,-0.07563247988485594,0,0,0.01645147375824028,-0.1785188179211951,0,0,-0.04891298189286789,-0.1205253945282609,0,0,-0.1451652987262768,-0.5506896123288523,0,49.15750915750916,800.6227106227107,813.5164835164835,30.62271062271062,757.9120879120879,612.8571428571429,0.034241,-0.003540,0.997925,1.592560,-0.657959,2.235565,1,4,1,1,4,84.000000
2023-05-23 12:33:02.844,0,-0.2480091194713033,0.1011526741409572,0,0,0.1197081922656398,-0.1019455979188732,0,0,0.04146007699489394,0.2163785439228213,0,0,0.08896336292502247,-0.1648020001636647,0,0,-0.2386241665964207,-0.5032699506186064,0,1623.809523809524,802.2344322344322,798.6080586080586,1624.212454212454,799.0109890109891,637.8388278388279,0.032654,-0.015808,0.942688,-2.228088,4.441223,-0.852356,1,4,1,1,4,84.000000
2023-05-23 12:33:03.794,0,-0.002562500101970929,0.2934954121926082,0,0,0.3519338197260847,0.1359399445103298,0,0,0.1541156154811678,0.2445629810625823,0,0,0.2211861866343084,-0.1321430768274635,0,0,-0.3270423795574143,-0.3018621390343385,0,1623.809523809524,804.2490842490843,809.8901098901099,1624.212454212454,778.8644688644689,674.9084249084249,0.044861,0.032471,0.998901,0.665436,-1.988831,1.757050,1,4,1,1,4,84.000000
2023-05-23 12:33:04.800,0,-0.06026280097553979,0.6222667883213733,0,0,0.1694408360790931,0.2582305755809568,0,0,0.2495060708171483,0.112651506247412,0,0,0.1782281064329577,-0.1384965043946285,0,0,-0.3297052788669593,-0.3750345669770475,0,0,805.4578754578755,798.6080586080586,0,876.7765567765568,695.0549450549451,0.025818,0.021912,0.982361,3.805695,-1.958923,4.142151,1,4,1,1,4,84.000000
2023-05-23 12:33:05.792,0,-0.1136438305363108,0.5970735447057142,0,0,0.3374999175938503,0.2972009625068759,0,0,0.3540001778912345,0.1285005860144557,0,0,0.002082748480618676,-0.2134464102178109,0,0,-0.4674226916769054,-0.5293982009557021,0,1623.809523809524,808.6813186813187,807.4725274725275,1624.212454212454,811.5018315018315,802.2344322344322,0.026978,0.010193,0.966858,2.542114,0.829926,3.820648,1,4,1,1,4,84.000000
2023-05-23 12:33:06.858,0,-0.2845026481966859,-0.1764051486925431,0,0,0.260536467413232,-0.215087377238232,0,0,0.3074149592353418,0.1318134010097524,0,0,0.1736027882031027,-0.3483485042616257,0,0,-0.3883688682545443,-0.4076678825000071,0,424.2857142857143,803.8461538461539,814.7252747252747,330.8058608058608,866.3003663003664,705.1282051282052,0.011658,0.018799,1.001038,2.639313,-2.429962,2.803802,1,4,1,1,4,84.000000
2023-05-23 12:33:07.868,0,0.3807332179814734,0.4166882553608223,0,0,0.2776774021846911,-0.2233323689270145,0,0,0.3114878810725685,0.1618230629072557,0,0,0.1586692368684151,-0.1240676455175476,0,0,-0.3002229163720166,-0.4860311944854924,0,1624.212454212454,797.3992673992674,801.025641025641,1624.212454212454,740.1831501831502,555.6410256410256,0.026855,0.027588,1.022156,1.854248,-4.373932,3.581390,1,4,1,1,4,84.000000
2023-05-23 12:33:08.854,0,0.02147750431213007,0.01347615666976395,0,0,0.1209875979053051,-0.1918793794853946,0,0,0.2411367122108178,0.2776678023726084,0,0,0.05473542050847081,-0.1048937325783965,0,0,-0.3649298960716939,-0.4348571095955094,0,0,802.2344322344322,809.4871794871796,0,867.5091575091575,705.1282051282052,0.024414,0.021912,0.979919,2.332764,-9.301147,1.786957,1,4,1,1,4,84.000000
2023-05-23 12:33:09.858,0,-0.08277810589020047,0.07722108555565377,0,0,0.2325304115544596,-0.1869819851513682,0,0,0.2704654149101267,0.2219150661074706,0,0,0.1539488063180223,-0.1677808813540321,0,0,-0.228712626759544,-0.3412334160476043,0,1623.809523809524,804.6520146520147,800.6227106227107,1624.212454212454,826.8131868131868,668.0586080586081,0.036316,0.008301,0.994873,4.822540,-4.396362,5.203857,1,4,1,1,4,84.000000
2023-05-23 12:33:10.859,0,-0.3002299426481432,0.2767005804935739,0,0,0.2816061196179498,-0.09467920436175452,0,0,0.1808849753258072,0.1710684556568912,0,0,-0.00572053545474809,-0.1418138846836926,0,0,-0.2127743434093497,-0.4280289638906576,0,1524.688644688645,799.8168498168499,800.2197802197802,1555.714285714286,791.7582417582418,667.2527472527473,0.068420,0.008667,0.991882,1.143951,-3.932800,0.829926,1,4,1,1,4,84.000000
2023-05-23 12:33:11.605,,,,,,,,,,,,,,,,,,,,,,,,,,,,,,,,,,,,,,,/muse/elements/blink
2023-05-23 12:33:11.852,0,-0.02026607523133327,-0.09320285594100236,0,0,0.363967178037628,0.05848062066669799,0,0,0.38693120486476,0.1994435500513763,0,0,-0.211829457620578,-0.004982564938799528,0,0,-0.3518454258882577,-0.4746804883743528,0,1624.212454212454,807.4725274725275,798.6080586080586,1624.212454212454,819.96336996337,838.901098901099,0.038879,0.011658,0.989319,2.370148,0.568237,1.166382,1,4,1,1,4,84.000000
2023-05-23 12:33:12.851,0,-0.03693423550592807,-0.0002424693686515471,0,0,0.06915362809752677,-0.02370684371386803,0,0,0.2868405392519556,-0.02563599180828446,0,0,-0.07807560049346571,-0.08583541601039096,0,0,-0.2822377944655354,-0.4029907324095834,0,1623.809523809524,804.6520146520147,802.6373626373627,1624.212454212454,791.7582417582418,627.7655677655678,0.006287,0.019714,0.963867,0.732727,4.568329,-0.433655,1,4,1,1,4,84.000000
2023-05-23 12:33:13.813,0,0.2269903628234782,0.3083100225622099,0,0,-0.06340806086838158,0.06158044692956761,0,0,0.1906424260073949,0.1204903958557974,0,0,0.1036974355420371,-0.1273296247830786,0,0,-0.3201690707893795,-0.354289145879006,0,1623.809523809524,809.4871794871796,812.3076923076924,1624.212454212454,806.6666666666667,693.4432234432235,0.075256,0.006531,0.943298,0.441132,8.501129,3.693542,1,4,1,1,4,84.000000
2023-05-23 12:33:14.806,0,-0.2048991999280814,-0.2946390034718884,0,0,0.1415231855812944,-0.1014164847121556,0,0,0.4624285340491152,0.2055339305485514,0,0,0.2306896505264462,-0.08513053299579561,0,0,-0.1655618117090163,-0.3545773595325286,0,9.670329670329672,801.4285714285714,803.040293040293,9.267399267399268,825.2014652014652,672.0879120879121,-0.008545,0.034363,0.980957,1.300964,2.093506,0.179443,1,4,1,1,4,84.000000
2023-05-23 12:33:15.861,0,0.052311450772884,-0.3070092527626254,0,0,0.3212454321148193,0.1362542050134764,0,0,0.4635645538787013,0.3789868188688162,0,0,0.1287042304233598,0.00754602012711652,0,0,-0.1524883207244155,-0.356785768011875,0,0,803.8461538461539,818.7545787545788,0,771.2087912087912,601.978021978022,0.029663,-0.006775,1.009460,3.132782,-2.721558,2.138367,1,4,1,1,4,84.000000
2023-05-23 12:33:16.828,0,0.4572248679045659,0.5905925432089801,0,0,0.4606272641526979,0.5704333975270257,0,0,0.3437751224743327,0.5362328340347432,0,0,0.06940829712103318,-0.02000323031072986,0,0,-0.108459684190196,-0.3720079907310255,0,0,815.5311355311355,792.1611721611722,0,821.978021978022,878.7912087912089,0.036560,0.051147,1.000122,3.843079,-2.123413,6.422577,1,4,1,1,4,84.000000
2023-05-23 12:33:17.204,,,,,,,,,,,,,,,,,,,,,,,,,,,,,,,,,,,,,,,/muse/elements/jaw_clench
2023-05-23 12:33:17.807,0,0.03728781179381122,0.4013310420950571,0,0,0.2065012696334644,0.09724299265626342,0,0,0.3637361323977789,0.3943944220259814,0,0,0.1283822084045659,-0.2092048180739609,0,0,-0.2635522218595649,-0.3655123840353112,0,0,803.4432234432235,805.0549450549451,0,861.4652014652015,720.8424908424909,0.067200,0.047058,0.995789,2.871094,-7.222595,2.265472,1,4,1,1,4,84.000000
2023-05-23 12:33:18.801,,,,,,,,,,,,,,,,,,,,,,,,,,,,,,,,,,,,,,,/muse/elements/jaw_clench
2023-05-23 12:33:18.814,0,-0.298170529025244,0.2083830278416662,0,0,0.2022068179797014,-0.01068014762463395,0,0,0.4282902160840819,0.2088327668583064,0,0,0.3472537462641774,-0.1179696919468108,0,0,-0.1926003248410457,-0.3524850698637189,0,1623.809523809524,796.996336996337,809.0842490842491,1624.212454212454,708.3516483516484,570.952380952381,0.056458,0.001831,0.997864,-0.112152,-3.970184,-1.839294,1,4,1,1,4,84.000000
2023-05-23 12:33:18.933,,,,,,,,,,,,,,,,,,,,,,,,,,,,,,,,,,,,,,,/muse/elements/jaw_clench
2023-05-23 12:33:19.829,0,-0.1108626410464573,-0.010180503783183,0,0,0.1172560687082767,0.1442817061329406,0,0,0.3089895668092479,0.3654406895461067,0,0,0.170106568874164,-0.1552703636471071,0,0,-0.1583189048794958,-0.288063247973027,0,0,803.8461538461539,806.2637362637363,0,841.7216117216118,733.7362637362637,0.064575,0.057678,0.987549,0.792542,0.867310,0.979462,1,4,1,1,4,84.000000
2023-05-23 12:33:20.587,,,,,,,,,,,,,,,,,,,,,,,,,,,,,,,,,,,,,,,/muse/elements/jaw_clench
2023-05-23 12:33:20.867,,,,,,,,,,,,,,,,,,,,,,,,,,,,,,,,,,,,,,,/muse/elements/jaw_clench
2023-05-23 12:33:20.879,0,-0.2145276644161044,-0.1508977163929234,0,0,0.1595224463134824,0.02633382876091707,0,0,0.1561160383539213,0.3834766569115162,0,0,0.1033262047628958,-0.09034333404548153,0,0,-0.1104381067120639,-0.1351307480563735,0,52.78388278388279,807.4725274725275,803.8461538461539,58.42490842490842,784.1025641025641,580.2197802197802,-0.000122,0.040894,1.006958,3.828125,3.745880,4.187012,1,4,1,1,4,84.000000
2023-05-23 12:33:21.010,,,,,,,,,,,,,,,,,,,,,,,,,,,,,,,,,,,,,,,/muse/elements/jaw_clench
2023-05-23 12:33:21.864,0,-0.6042002678142544,-0.03077715820843633,0,0,-0.03930346721243526,-0.1380889861018166,0,0,0.1207299510997301,0.1429389109941061,0,0,0.03589737780983247,-0.1013549144755934,0,0,-0.05232010565972076,-0.344417930674572,0,1623.809523809524,810.6959706959707,799.8168498168499,1624.212454212454,809.4871794871796,679.7435897435897,-0.011414,0.026062,0.995667,3.588867,3.237457,1.600037,1,4,1,1,4,84.000000
2023-05-23 12:33:22.870,0,0.002206771323073459,0.4912006511624484,0,0,-0.3376247233049768,-0.04907294709040349,0,0,0.323282483178814,0.1582974674330597,0,0,0.1003857377215401,-0.164882401304546,0,0,-0.03913380073326747,-0.3750505919899599,0,22.16117216117216,792.5641025641025,796.996336996337,19.34065934065934,818.3516483516484,667.2527472527473,0.010254,0.073364,0.964417,2.856140,6.983337,7.088013,1,4,1,1,4,84.000000
2023-05-23 12:33:22.988,,,,,,,,,,,,,,,,,,,,,,,,,,,,,,,,,,,,,,,/muse/elements/jaw_clench
2023-05-23 12:33:23.860,0,0.2349430046838341,0.5942285460385618,0,0,0.06453905956382386,0.07796066134545972,0,0,0.3659146466272908,0.3011407344086579,0,0,0.3384171748670364,0.2531567511291936,0,0,0.04213630230719478,-0.03462802441144548,0,79.37728937728939,811.0989010989011,792.967032967033,66.48351648351648,799.0109890109891,671.2820512820513,0.012329,0.041443,0.984314,-2.377625,-6.624451,-3.641205,1,4,1,1,4,84.000000
2023-05-23 12:33:24.104,,,,,,,,,,,,,,,,,,,,,,,,,,,,,,,,,,,,,,,/muse/elements/jaw_clench
2023-05-23 12:33:24.354,,,,,,,,,,,,,,,,,,,,,,,,,,,,,,,,,,,,,,,/muse/elements/jaw_clench
2023-05-23 12:33:24.609,,,,,,,,,,,,,,,,,,,,,,,,,,,,,,,,,,,,,,,/muse/elements/jaw_clench
2023-05-23 12:33:24.858,0,0.3961643986992203,0.102715378764909,0,0,0.1506008457674057,0.1127350569582166,0,0,0.3494510386113375,0.3145005347485924,0,0,0.2638317316627005,0.3203911725216367,0,0,-0.03148449487890068,-0.01617395109429434,0,1623.809523809524,794.1758241758242,840.5128205128206,1624.212454212454,817.5457875457876,631.3919413919414,-0.026367,0.026733,1.013000,3.820648,3.087921,4.964600,1,4,1,1,4,84.000000
2023-05-23 12:33:25.829,0,0.7426314226401221,0.8113039007133374,0,0,-0.07308058288944509,0.02039956783807004,0,0,0.2011511055698463,0.1249243768315805,0,0,0.04088881256671511,0.03297878773976096,0,0,-0.09523129679303387,-0.1694792771930898,0,0,805.4578754578755,811.0989010989011,0,838.901098901099,741.3919413919414,0.037903,0.009583,0.969116,2.594452,3.514099,2.302856,1,4,1,1,4,84.000000
2023-05-23 12:33:26.808,0,0.8248679659437427,0.8371510290204759,0,0,0.1275562860769404,0.1988153556891567,0,0,0.3328012548484049,0.202546822926453,0,0,0.003536519162202781,0.02719821538564799,0,0,-0.1758458007368841,-0.3706464750329266,0,0,795.7875457875458,805.4578754578755,0,838.4981684981685,689.0109890109891,0.037109,0.029053,0.983521,0.299072,-5.495453,2.415009,1,4,1,1,4,84.000000
2023-05-23 12:33:27.824,0,0.05522349402240043,0.1655845607069542,0,0,0.1852830917962635,0.08362525958683197,0,0,0.3741191392085477,0.2147011652667999,0,0,0.004000995588449878,-0.07794741616604001,0,0,-0.1790205666072901,-0.278325034801813,0,0,804.2490842490843,798.2051282051282,0,799.4139194139194,775.6410256410256,-0.037537,0.040100,1.053711,2.422485,2.115936,5.308533,1,4,1,1,4,84.000000
2023-05-23 12:33:28.793,0,0.1936177213879259,0.4467196194222701,0,0,0.1517665824417765,-0.1341894497806515,0,0,0.4099257738067575,0.04334796277554217,0,0,0.06558700889451252,-0.01685468998650943,0,0,-0.1853239029311681,-0.4206120653423041,0,1623.809523809524,804.6520146520147,806.2637362637363,1624.212454212454,814.7252747252747,625.7509157509157,0.041199,0.062866,0.929626,-2.265472,5.009460,-0.306549,1,4,1,1,4,84.000000
2023-05-23 12:33:29.868,0,-0.06817142744859238,0.4569209449128686,0,0,0.08493825528351426,0.05460322519766807,0,0,0.4681763209824117,0.007189761115279831,0,0,0.1078197658229178,-0.0364008282176035,0,0,-0.1691754518950289,-0.6176791585970842,0,0,806.6666666666667,808.2783882783883,6.84981684981685,850.989010989011,687.3992673992674,0.197266,0.020569,1.048462,2.377625,-3.200073,5.226288,1,4,1,1,4,84.000000
2023-05-23 12:33:30.864,0,-0.4193575764761284,0.3044833811336806,0,0,0.1426395244697658,0.01823997347898633,0,0,0.4023347964014841,-0.03810024841655019,0,0,0.1640698196790652,-0.04129090501813349,0,0,-0.1769072897046128,-0.4518528641129001,0,1629.450549450549,804.6520146520147,815.5311355311355,1628.644688644689,821.978021978022,796.5934065934066,0.123230,0.028931,0.989685,1.607513,-10.437622,2.213135,1,4,1,1,4,84.000000
2023-05-23 12:33:31.869,0,-0.3212084192275161,0.1479259188886107,0,0,0.3160477835891304,-0.1047967451621694,0,0,0.3184620270710617,0.01182394769614543,0,0,0.1078041588233278,-0.05098877827604347,0,0,-0.1592458275194595,-0.3513108698746505,0,1624.212454212454,794.5787545787546,801.025641025641,1624.212454212454,777.2527472527473,649.1208791208792,0.067566,0.036072,0.985413,4.015045,-5.129089,6.639404,1,4,1,1,4,84.000000
2023-05-23 12:33:32.846,0,-0.1738407087782685,0.4556244558479731,0,0,0.5732231452711581,0.3674003790954145,0,0,0.318627325720823,-0.1146536644777704,0,0,0.0639479121151614,0.004395913402553028,0,0,-0.1342315944876153,-0.2660913945959593,0,51.57509157509158,808.6813186813187,804.2490842490843,44.72527472527473,807.4725274725275,650.7326007326008,0.149170,0.027222,0.988831,0.164490,-6.190796,-2.063599,1,4,1,1,4,84.000000
2023-05-23 12:33:33.833,0,-0.1006906430029481,0.3319292227828116,0,0,0.4580447016341593,0.4257448145120058,0,0,0.267037283455518,-0.05605406456798643,0,0,0.001618582934405503,-0.0517464206063739,0,0,-0.1715554985218322,-0.3068229526272693,0,0,807.8754578754579,791.7582417582418,0,781.2820512820513,745.0183150183151,0.078125,0.032349,0.984253,0.979462,1.719666,3.050537,1,4,1,1,4,84.000000
2023-05-23 12:33:34.815,0,0.2572008380122746,0.3814393208977363,0,0,0.2975918740585316,0.1807483563693766,0,0,0.3182620858533332,0.04474095061475193,0,0,0.0607756754554725,-0.2177739237881993,0,0,-0.1158906010917834,-0.4636593966024474,0,0,804.6520146520147,803.4432234432235,0,825.2014652014652,672.4908424908425,0.065735,0.019226,0.961853,1.308441,4.157104,4.575806,1,4,1,1,4,84.000000
2023-05-23 12:33:35.871,0,0.1128229027812943,0.2839462045823112,0,0,-0.03178183720449249,-0.03208981407441727,0,0,0.428324116330265,0.01084444868963261,0,0,0.1791859049050332,-0.1325023816367025,0,0,-0.259363615242948,-0.4313356633625448,0,6.446886446886447,808.6813186813187,799.4139194139194,5.641025641025641,775.2380952380953,760.3296703296703,0.096375,0.039551,0.982605,2.796326,-1.929016,2.833710,1,4,1,1,4,84.000000
2023-05-23 12:33:36.874,0,-0.2377272887982143,0.05215869619044924,0,0,-0.0913755101465806,0.1596895612277555,0,0,0.2816458802612632,0.1686043226370998,0,0,0.2542880607686738,-0.0880764162490265,0,0,-0.1643011009586947,-0.4347984623436886,0,1623.809523809524,811.5018315018315,804.6520146520147,1624.212454212454,832.0512820512821,651.1355311355312,0.068054,0.006775,0.974365,2.362671,-0.837402,1.824341,1,4,1,1,4,84.000000
2023-05-23 12:33:37.869,0,-0.2262472970581898,0.008604928196462655,0,0,-0.1346761564616712,-0.04067689139329084,0,0,0.2704757923046808,0.2305219584044587,0,0,0.09231691004091992,-0.1883222289675879,0,0,-0.1067862868848947,-0.4410386543102892,0,1624.615384615385,804.2490842490843,807.8754578754579,1623.406593406593,785.3113553113553,635.4212454212454,0.094543,0.025513,1.011902,3.424377,-0.239258,4.284210,1,4,1,1,4,84.000000
2023-05-23 12:33:38.870,0,-0.1302396270149346,0.0002083597794112899,0,0,-0.01804618121440933,-0.1205424290143354,0,0,0.2147867506317638,0.3599085566759795,0,0,0.1333037902509651,-0.1409995104026769,0,0,-0.2026385649848212,-0.5000532522973393,0,0,815.5311355311355,803.8461538461539,0,850.5860805860806,681.7582417582418,0.008240,0.055725,0.991455,2.557068,-3.065491,3.514099,1,4,1,1,4,84.000000
2023-05-23 12:33:39.870,0,-0.1695508768183297,0.1221237206987139,0,0,-0.1679514108032776,0.1587734023642931,0,0,0.390375244446136,0.2288513067993163,0,0,0.132289014317954,-0.009273298985738684,0,0,-0.3328841721932836,-0.4706022211652029,0,0,805.0549450549451,798.2051282051282,0,783.6996336996338,658.7912087912088,0.012085,0.102234,0.986877,1.592560,-0.687866,3.312225,1,4,1,1,4,84.000000
2023-05-23 12:33:40.871,0,0.06465030439947288,0.01754807966746523,0,0,-0.006780961249373295,0.1489096639312624,0,0,0.4162284815195108,0.1557835574237894,0,0,0.1846099880453222,-0.1170224018006371,0,0,-0.2491517317417045,-0.527000464385721,0,84.61538461538461,799.0109890109891,807.4725274725275,80.58608058608058,814.3223443223443,823.1868131868132,0.041199,0.050964,0.969666,4.523468,-12.688141,5.697327,1,4,1,1,4,84.000000
2023-05-23 12:33:41.796,0,0.1169119325805932,-0.1073704802331641,0,0,0.1497752730382776,-0.1072538097848635,0,0,0.1838929557809543,0.1787825313095529,0,0,0.1735842428256338,-0.116917002687152,0,0,-0.2280075984794919,-0.5467323059374565,0,0,807.0695970695971,801.025641025641,0,776.4468864468864,631.3919413919414,0.065125,0.071350,1.002380,0.949554,-2.482300,2.691650,1,4,1,1,4,84.000000
2023-05-23 12:33:42.804,0,0.05375455843570391,0.2852614561356857,0,0,0.1753063190170509,-0.08751391893188777,0,0,0.2533420247051631,0.1239267831476708,0,0,0.1591470952365322,0.01451897017908388,0,0,-0.2550221565920589,-0.4120352306800235,0,0,796.1904761904763,802.2344322344322,0,768.3882783882784,636.6300366300367,0.053223,0.083069,0.995850,5.861816,0.366364,6.908569,1,4,1,1,4,84.000000
2023-05-23 12:33:43.789,0,-0.1354237281208084,-0.007979293643226337,0,0,0.04149105510795291,-0.142837712975276,0,0,0.5324832066862989,0.2347897930567924,0,0,0.05690748130671538,-0.1738051025944791,0,0,-0.2278336973884907,-0.540206861607226,0,20.14652014652015,802.2344322344322,809.4871794871796,6.043956043956044,736.1538461538462,736.5567765567765,0.035339,0.077209,1.026306,2.018738,5.532837,5.099182,1,4,1,1,4,84.000000
2023-05-23 12:33:44.810,0,-0.1022670783284656,-0.1708484782941316,0,0,0.1792093199271835,-0.1666831727481182,0,0,0.5755775464687409,0.2144586328773493,0,0,0.04653964216694109,-0.02833939981464097,0,0,-0.2819126930852179,-0.5299748649098717,0,969.8534798534798,808.6813186813187,801.025641025641,678.5347985347986,852.6007326007326,692.6373626373627,0.063232,0.072449,0.966858,0.553284,0.194397,1.271057,1,4,1,1,4,84.000000
2023-05-23 12:33:45.790,0,-0.3001956043211492,-0.264047176166787,0,0,0.02747605327906001,-0.200306150020042,0,0,0.4767529825484955,0.2690374582827337,0,0,0.1868861513570147,-0.08918392885565139,0,0,-0.3171134651122121,-0.5689464416384578,0,918.6813186813187,805.8608058608058,801.8315018315019,1107.252747252747,854.2124542124542,733.7362637362637,0.040283,0.114868,0.992188,3.244934,-5.016937,4.755249,1,4,1,1,4,84.000000
2023-05-23 12:33:46.285,,,,,,,,,,,,,,,,,,,,,,,,,,,,,,,,,,,,,,,/muse/elements/jaw_clench
2023-05-23 12:33:46.791,0,0.0220509032650193,-0.2187189752169588,0,0,-0.2235402700078225,0.03862818180825105,0,0,0.2993711224954574,0.3044331899349397,0,0,0.2622224763919002,-0.06920172757972996,0,0,-0.1755814992800297,-0.3423534036091468,0,65.27472527472527,805.0549450549451,806.6666666666667,59.63369963369964,781.6849816849817,618.0952380952381,0.062012,0.087585,0.978027,1.622467,2.616882,3.005676,1,4,1,1,4,84.000000
2023-05-23 12:33:47.789,0,-0.1313332125828227,0.1675466659592039,0,0,-0.2291574465256399,-0.01547553042129782,0,0,0.4282045061129525,0.1534199373073561,0,0,0.07883353708510098,-0.02521347879380789,0,0,-0.2690507877206965,-0.2345595859549978,0,1623.809523809524,802.2344322344322,807.4725274725275,1624.212454212454,824.3956043956044,706.3369963369963,0.036499,0.107788,0.979431,3.274841,0.463562,5.016937,1,4,1,1,4,84.000000
2023-05-23 12:33:48.861,0,0.06415006490032596,0.03945471013991492,0,0,-0.008916822716085987,-0.2159453251731868,0,0,0.3774130513400628,0.08094829191509897,0,0,0.05260358153437245,-0.1222443545276553,0,0,-0.3555008182901478,-0.365341795810995,0,20.14652014652015,791.7582417582418,810.6959706959707,20.54945054945055,788.1318681318681,757.1062271062272,0.056030,0.104797,0.979126,2.302856,-1.375732,3.162689,1,4,1,1,4,84.000000
2023-05-23 12:33:49.856,0,0.0708256562188188,0.1931686661956997,0,0,-0.002856703362178593,-0.1277863705276653,0,0,0.3586713551806473,0.269826582988562,0,0,0.1875085469969197,-0.1369226496835667,0,0,-0.1959428802990184,-0.2778436881234457,0,1618.168498168498,798.6080586080586,800.2197802197802,1613.333333333333,803.4432234432235,818.3516483516484,0.044922,0.113159,1.009888,2.945862,-1.719666,4.388885,1,4,1,1,4,84.000000
2023-05-23 12:33:50.086,,,,,,,,,,,,,,,,,,,,,,,,,,,,,,,,,,,,,,,/muse/elements/jaw_clench
2023-05-23 12:33:50.825,0,0.2278492354686733,0.2983076959405112,0,0,0.05273549195169607,-0.2732375174515635,0,0,0.2986567350705014,0.3370383596908614,0,0,0.185627624752894,-0.01677504153435591,0,0,-0.3654690221492612,-0.2506604285409431,0,0,809.0842490842491,809.0842490842491,0,792.5641025641025,666.4468864468864,0.073181,0.100159,1.004517,3.446808,-0.650482,3.476715,1,4,1,1,4,84.000000
2023-05-23 12:33:51.838,0,0.1366222007357502,-0.00243532819470893,0,0,0.08355447875274637,-0.09037760718519675,0,0,0.2153249931028169,0.2348326282617879,0,0,0.1778487908875169,-0.04324437917011198,0,0,-0.3279628902318273,-0.3423304031029238,0,1623.809523809524,806.6666666666667,811.9047619047619,1624.212454212454,777.2527472527473,639.4505494505495,0.064148,0.089172,0.983093,4.067383,1.271057,4.471130,1,4,1,1,4,84.000000
2023-05-23 12:33:52.805,0,0.03016540355385678,0.06597338171888061,0,0,-0.1223739687854366,-0.06266803007852187,0,0,0.08582779498724764,0.2456646161897131,0,0,0.03340360448172986,-0.07251761476536264,0,0,-0.1906791590716799,-0.364867147255509,0,0,802.6373626373627,806.6666666666667,0,874.7619047619048,687.8021978021978,0.046204,0.114197,0.949158,3.072968,0.680389,4.740295,1,4,1,1,4,84.000000
2023-05-23 12:33:53.826,0,0.02919893674951172,-0.06260726464352366,0,0,-0.1206383993243418,-0.07767192291971563,0,0,0.1492399693615903,0.1172344077687242,0,0,-0.03026535252894106,-0.07995046402636542,0,0,-0.1660072433042004,-0.4841812280313635,0,0,802.2344322344322,800.2197802197802,0,772.4175824175825,631.7948717948718,0.037842,0.113159,1.044434,1.241150,-8.284302,1.996307,1,4,1,1,4,84.000000
2023-05-23 12:33:54.706,,,,,,,,,,,,,,,,,,,,,,,,,,,,,,,,,,,,,,,/muse/elements/jaw_clench
2023-05-23 12:33:54.844,0,0.3213576075870723,-0.3593072687933875,0,0,0.1965137042826531,-0.06501604037058056,0,0,0.2388662137969247,-0.07540455886954638,0,0,0.1030513412960725,-0.1543009784578381,0,0,-0.1719857449293251,-0.3916392913710762,0,1624.212454212454,803.4432234432235,807.4725274725275,1624.212454212454,840.9157509157509,693.4432234432235,0.096191,0.088928,1.006897,0.336456,-4.194489,-0.485992,1,4,1,1,4,84.000000
2023-05-23 12:33:54.970,,,,,,,,,,,,,,,,,,,,,,,,,,,,,,,,,,,,,,,/muse/elements/jaw_clench
2023-05-23 12:33:55.857,0,-0.2885114415312995,-0.2705164000419622,0,0,0.09543166743004075,-0.2613148133526723,0,0,0.2258759899108881,0.01490106527441808,0,0,0.1158389442131677,-0.02327396525974952,0,0,-0.1605775500141149,-0.3716477951845056,0,1251.098901098901,803.040293040293,805.0549450549451,1281.318681318681,764.7619047619048,614.0659340659341,0.064880,0.073608,0.984009,-0.306549,-0.411224,1.046753,1,4,1,1,4,84.000000
2023-05-23 12:33:56.859,0,-0.1254549312700694,-0.4436688549309407,0,0,-0.1075130297536268,-0.2125901905801292,0,0,0.1720150659648868,-0.01869382936727196,0,0,0.03337306141543333,-0.08518230633254233,0,0,-0.1905622630119628,-0.3231327062250254,0,49.15750915750916,807.4725274725275,809.0842490842491,75.34798534798534,759.1208791208792,612.0512820512821,0.040100,0.082764,0.987915,0.695343,-1.457977,1.502838,1,4,1,1,4,84.000000
2023-05-23 12:33:57.866,0,-0.08021067085193349,-0.1859566183239434,0,0,-0.02409722736922638,-0.03010130900239802,0,0,0.2267015114761819,0.1136645202307695,0,0,0.05668288814969154,0.01393313376901049,0,0,-0.1659856708995784,-0.4020699619468612,0,1633.479853479854,803.040293040293,807.4725274725275,1629.85347985348,754.2857142857143,592.3076923076924,0.056091,0.095703,0.996460,2.459869,-3.237457,4.336548,1,4,1,1,4,84.000000
2023-05-23 12:33:58.869,0,0.1318466831680118,0.3831904994112006,0,0,-0.02727211029877319,0.2410651834156212,0,0,-0.02798743396062856,0.1923219490154822,0,0,0.08744662661374072,0.06727110616506859,0,0,-0.09893299846196958,-0.3526074875756522,0,0,802.2344322344322,799.4139194139194,0,828.021978021978,675.3113553113553,0.079712,0.099182,0.980774,1.241150,2.751465,2.975769,1,4,1,1,4,84.000000
2023-05-23 12:33:59.870,0,0.0965220937190506,0.1676110737709019,0,0,0.1567879965392902,0.2310854661503767,0,0,0.1665905989742772,0.4001994223242462,0,0,0.02161507675209014,-0.0689518743986047,0,0,-0.2457520070548146,-0.2623409450134134,0,0,798.6080586080586,811.0989010989011,0,859.4505494505495,682.1611721611722,0.057556,0.097046,1.008301,1.614990,-4.000092,3.229980,1,4,1,1,4,84.000000
2023-05-23 12:34:00.837,0,-0.0351892273721456,-0.09160994674356997,0,0,0.3679698474410311,-0.001248159977128853,0,0,0.2632405821148681,0.1198880528380364,0,0,0.01971415378130745,0.01932152930370783,0,0,-0.1219746622864597,-0.3306072475474756,0,0,803.4432234432235,803.8461538461539,0,771.2087912087912,713.1868131868132,0.067871,0.099915,0.982971,3.499146,2.257996,4.381409,1,4,1,1,4,84.000000
2023-05-23 12:34:01.863,0,-0.1562222626165048,-0.2522856122398361,0,0,0.2159827756523127,-0.2238554986223486,0,0,0.365981542865615,0.03202622813128952,0,0,0.136196876937756,-0.005683224468733796,0,0,-0.1854384186218581,-0.3794984004815521,0,0,809.0842490842491,795.7875457875458,0,855.4212454212454,701.9047619047619,0.057556,0.101746,1.004456,-0.523376,-0.912170,1.061707,1,4,1,1,4,84.000000
2023-05-23 12:34:02.356,,,,,,,,,,,,,,,,,,,,,,,,,,,,,,,,,,,,,,,/muse/elements/jaw_clench
2023-05-23 12:34:02.827,0,-0.198775375023212,-0.2244109323721173,0,0,0.07479367021530611,-0.04450910337666151,0,0,0.4653789382623675,-0.01551564389391375,0,0,0.0628078472350453,0.09861361918110947,0,0,-0.2957618155180153,-0.3443889320506678,0,1623.809523809524,806.6666666666667,798.6080586080586,1624.212454212454,782.4908424908425,648.7179487179487,0.026306,0.114136,0.986084,1.824341,-0.104675,2.691650,1,4,1,1,4,84.000000
2023-05-23 12:34:03.309,,,,,,,,,,,,,,,,,,,,,,,,,,,,,,,,,,,,,,,/muse/elements/jaw_clench
2023-05-23 12:34:03.544,,,,,,,,,,,,,,,,,,,,,,,,,,,,,,,,,,,,,,,/muse/elements/jaw_clench
2023-05-23 12:34:03.812,0,-0.06005660881093162,-0.05957462030959909,0,0,-0.02028117155935167,0.01254183612900803,0,0,0.3941310207402223,-0.004810813451930251,0,0,0.1367209185801526,0.1366747963525346,0,0,-0.2433179724559328,-0.3411605373120735,0,0,810.6959706959707,805.4578754578755,0,822.7838827838829,692.2344322344322,0.052856,0.136536,0.980652,1.682281,-1.188812,4.523468,1,4,1,1,4,84.000000
2023-05-23 12:34:04.806,0,-0.1532701627521789,-0.05700467681560206,0,0,-0.03684380520455062,-0.2082120773611601,0,0,0.2867763806246013,-0.01792966931828624,0,0,0.1811136879310702,0.07148579799026007,0,0,-0.2751876465201749,-0.4738110255747986,0,0,817.948717948718,794.5787545787546,0,754.6886446886447,628.1684981684982,0.007629,0.092102,0.950073,-0.919647,7.327271,-1.734619,1,4,1,1,4,84.000000
2023-05-23 12:34:05.056,,,,,,,,,,,,,,,,,,,,,,,,,,,,,,,,,,,,,,,/muse/elements/jaw_clench
2023-05-23 12:34:05.826,0,0.367976892133585,0.5794028372625126,0,0,0.2727118747163073,0.1127704955341305,0,0,0.6574180840297575,0.5649090958464255,0,0,0.3174998847496043,0.2493586772278759,0,0,0.2128529123268102,-0.1264096548075342,0,58.42490842490842,807.0695970695971,809.8901098901099,53.99267399267399,840.1098901098901,853.4065934065934,-0.026001,0.084900,0.985474,-1.196289,-4.433746,1.181335,1,4,1,1,4,84.000000
2023-05-23 12:34:06.706,,,,,,,,,,,,,,,,,,,,,,,,,,,,,,,,,,,,,,,/muse/elements/jaw_clench
2023-05-23 12:34:06.847,0,0.2005389433640607,0.4452317420628387,0,0,0.3816182872775405,0.2413919868869608,0,0,0.6682641607130926,0.6245572498484986,0,0,0.3873943825189492,0.4387712866278612,0,0,0.2782763076259829,0.1336231015665117,0,1623.809523809524,796.5934065934066,811.9047619047619,1624.212454212454,802.2344322344322,714.3956043956044,0.022034,0.079224,0.963379,0.553284,2.407532,2.325287,1,4,1,1,4,84.000000
2023-05-23 12:34:07.813,0,0.2489170912842069,0.3564903016070787,0,0,0.3070925490576596,0.4846901746247114,0,0,0.5836891226668631,0.5447992012296766,0,0,0.380149398617038,0.3051006410323257,0,0,0.1149416234650331,0.03822208047174662,0,1623.809523809524,810.6959706959707,813.5164835164835,1624.212454212454,849.3772893772895,713.992673992674,0.010559,0.106079,0.993103,0.560760,-1.637421,3.775787,1,4,1,1,4,84.000000
2023-05-23 12:34:08.147,,,,,,,,,,,,,,,,,,,,,,,,,,,,,,,,,,,,,,,/muse/elements/jaw_clench
2023-05-23 12:34:08.799,0,0.1216175514448965,0.03773307521003336,0,0,0.339175185082139,0.1761119903902686,0,0,0.4269945037780312,0.4144924511404514,0,0,0.273247173032353,-0.03125652948663767,0,0,-0.116325943716437,-0.1277675908589173,0,0,796.1904761904763,804.6520146520147,0,792.967032967033,588.2783882783883,0.022095,0.093140,1.009827,0.628052,-5.144043,2.272949,1,4,1,1,4,84.000000
2023-05-23 12:34:09.847,0,-0.1526600620888273,-0.2178824698925542,0,0,0.06209930470371675,0.0905245705616585,0,0,0.2188987369225513,0.08487562175487111,0,0,0.1815909174034685,0.06752526825532366,0,0,-0.1169344306773118,-0.1045443282733765,0,1623.809523809524,797.8021978021978,803.4432234432235,1624.212454212454,807.0695970695971,660,0.014282,0.101746,0.979370,2.758942,-3.013153,3.349609,1,4,1,1,4,84.000000
2023-05-23 12:34:10.831,0,-0.08978321166003,-0.1681606261262831,0,0,0.08230292092749555,-0.0488841785605055,0,0,0.1339697358818462,0.1440157062775842,0,0,0.07428645456121667,0.0206667577007671,0,0,-0.2234787658177724,-0.3382940220197346,0,1623.809523809524,802.6373626373627,800.2197802197802,1624.212454212454,805.4578754578755,653.5531135531136,0.037415,0.144714,0.990051,3.132782,-4.254303,4.067383,1,4,1,1,4,84.000000
2023-05-23 12:34:11.824,,,,,,,,,,,,,,,,,,,,,,,,,,,,,,,,,,,,,,,/muse/elements/jaw_clench
2023-05-23 12:34:11.833,0,-0.2454757578360174,-0.348527863310631,0,0,0.2050293998115332,-0.1606486794330726,0,0,0.3722789651645941,0.1774250862814888,0,0,0.01481271355318357,0.1305414389147267,0,0,-0.1935948718416085,-0.4124150261833517,0,1623.809523809524,796.996336996337,803.040293040293,1624.212454212454,842.1245421245421,697.4725274725275,0.040039,0.167603,1.000244,0.717773,-4.702911,3.364563,1,4,1,1,4,84.000000
2023-05-23 12:34:12.065,,,,,,,,,,,,,,,,,,,,,,,,,,,,,,,,,,,,,,,/muse/elements/jaw_clench
2023-05-23 12:34:12.200,,,,,,,,,,,,,,,,,,,,,,,,,,,,,,,,,,,,,,,/muse/elements/jaw_clench
2023-05-23 12:34:12.446,,,,,,,,,,,,,,,,,,,,,,,,,,,,,,,,,,,,,,,/muse/elements/jaw_clench
2023-05-23 12:34:12.821,0,-0.7141751710810043,-0.159150076667962,0,0,-0.2300767752243332,0.1337020980872287,0,0,0.32904794900705,0.2896132906012217,0,0,0.1192766213175163,0.06523340622602372,0,0,-0.2025358729470446,-0.2238290447013397,0,24.17582417582418,803.4432234432235,808.2783882783883,30.62271062271062,811.9047619047619,696.2637362637363,0.046021,0.131836,1.028564,3.372040,-2.549591,4.508514,1,4,1,1,4,84.000000
2023-05-23 12:34:13.322,,,,,,,,,,,,,,,,,,,,,,,,,,,,,,,,,,,,,,,/muse/elements/jaw_clench
2023-05-23 12:34:13.828,0,-0.444874178481633,-0.2040071835634265,0,0,0.05546507017760408,0.1570754435678403,0,0,0.2896411981323724,0.3035235789114255,0,0,0.1370677546914743,0.1010730794702494,0,0,-0.1708262751935208,-0.3603567771117744,0,1625.018315018315,803.8461538461539,806.2637362637363,1626.630036630037,778.8644688644689,696.2637362637363,0.066772,0.117615,0.970764,-10.460052,-3.386993,-9.331055,1,4,1,1,4,84.000000
2023-05-23 12:34:14.815,0,0.03299387550412906,0.2531123059151406,0,0,0.1762323864438328,0.2940347994807531,0,0,0.474339056501018,0.1261609382717176,0,0,0.1481517096086933,0.2030626334459332,0,0,-0.2131150611399525,-0.4178957015801672,0,0,817.5457875457876,803.8461538461539,0,790.1465201465202,839.7069597069598,0.111877,-0.033203,0.980957,-9.607697,-16.284485,-9.233856,1,4,1,1,4,84.000000
2023-05-23 12:34:15.181,,,,,,,,,,,,,,,,,,,,,,,,,,,,,,,,,,,,,,,/muse/elements/jaw_clench
2023-05-23 12:34:15.319,,,,,,,,,,,,,,,,,,,,,,,,,,,,,,,,,,,,,,,/muse/elements/blink
2023-05-23 12:34:15.377,,,,,,,,,,,,,,,,,,,,,,,,,,,,,,,,,,,,,,,/muse/elements/jaw_clench
2023-05-23 12:34:15.774,0,0.2085154936621789,0.4333130696222701,0,0,0.2339448395960422,0.2885233006425585,0,0,0.4346261392590384,0.2012120364001831,0,0,0.05674666423286733,0.1872701602910141,0,0,-0.3048336891497854,-0.1213194303441193,0,1623.809523809524,783.6996336996338,813.1135531135532,1624.212454212454,761.1355311355312,770.8058608058608,0.320618,-0.036926,0.959717,7.559052,-2.489777,4.762726,1,4,1,1,4,84.000000
2023-05-23 12:34:16.362,,,,,,,,,,,,,,,,,,,,,,,,,,,,,,,,,,,,,,,/muse/elements/blink
2023-05-23 12:34:16.362,,,,,,,,,,,,,,,,,,,,,,,,,,,,,,,,,,,,,,,/muse/elements/jaw_clench
2023-05-23 12:34:16.773,0,0.08846266392200669,0.05229736535509641,0,0,0.3082147646114383,-0.2692871926091767,0,0,0.381525424868217,0.0925487062704321,0,0,-0.09297210576491083,0.2607323039598465,0,0,-0.4345139192695862,0.2298490267654036,0,0,815.5311355311355,816.3369963369963,0,872.7472527472528,759.92673992674,0.277893,-0.040466,0.942688,0.231781,-8.381500,-1.614990,1,4,1,1,4,84.000000
2023-05-23 12:34:16.791,,,,,,,,,,,,,,,,,,,,,,,,,,,,,,,,,,,,,,,/muse/elements/blink
2023-05-23 12:34:17.773,0,0.09264826877465343,0.3047941112017222,0,0,-0.05418546882274416,0.389564389293297,0,0,0.5139259523626103,0.3744268558225847,0,0,0.3396153466742921,0.378985501149165,0,0,0.5175629465355825,0.2810907176372927,0,55.60439560439561,771.2087912087912,784.1025641025641,41.5018315018315,825.2014652014652,1039.96336996337,0.367432,-0.065735,0.897644,0.239258,1.525269,2.220612,1,4,1,1,4,84.000000
2023-05-23 12:34:17.999,,,,,,,,,,,,,,,,,,,,,,,,,,,,,,,,,,,,,,,/muse/elements/jaw_clench
2023-05-23 12:34:18.176,,,,,,,,,,,,,,,,,,,,,,,,,,,,,,,,,,,,,,,/muse/elements/jaw_clench
2023-05-23 12:34:18.773,0,-0.2324910265451654,0.5307164982805606,0,0,0.0221460192624809,0.5220881900468726,0,0,0.4655317536135851,0.3358922189859296,0,0,0.3825727631516829,0.4031596692790222,0,0,0.6559024789035699,0.3719349133648665,0,1623.809523809524,799.0109890109891,809.8901098901099,1624.212454212454,805.4578754578755,841.7216117216118,0.305237,-0.081970,0.932617,0.209351,-0.396271,1.308441,1,4,1,1,4,84.000000
2023-05-23 12:34:19.387,,,,,,,,,,,,,,,,,,,,,,,,,,,,,,,,,,,,,,,/muse/elements/jaw_clench
2023-05-23 12:34:19.773,0,-0.09398063496959863,0.06822290626810211,0,0,-0.005651101165992049,0.2619629638223684,0,0,0.2301384564453421,0.283552203890661,0,0,-0.007991413026282954,0.05585046225968642,0,0,-0.2299583662186872,-0.3346144406786365,0,0,808.2783882783883,805.4578754578755,0,905.7875457875458,837.6923076923077,0.344177,-0.099487,0.941040,8.172150,-2.063599,7.274933,1,4,1,1,4,84.000000
2023-05-23 12:34:20.782,0,0.316254688605431,0.4670817002989952,0,0,0.2154913666302182,0.4029988457784342,0,0,0.4709375161698907,0.2406137291842367,0,0,0.1787977865730317,0.06699945583783851,0,0,-0.219297295461136,-0.2878005409837971,0,1623.809523809524,810.6959706959707,799.8168498168499,1624.212454212454,821.5750915750916,756.7032967032967,0.372620,-0.107178,0.956604,4.478607,-0.568237,4.553375,1,4,1,1,4,84.000000
2023-05-23 12:34:21.774,0,0.3628830494446502,0.6075383819597635,0,0,0.4946104485099964,0.2174322493520449,0,0,0.4306676849856811,0.2309698907528189,0,0,0.1315019085431314,-0.02348301604426303,0,0,-0.2950710386587972,-0.3108947983653141,0,61.24542124542125,803.040293040293,804.6520146520147,59.63369963369964,713.1868131868132,758.7179487179487,0.297546,-0.080017,0.939331,4.553375,0.231781,4.867401,1,4,1,1,4,84.000000
2023-05-23 12:34:22.777,0,0.2322671452682973,0.3907529052306103,0,0,0.5653038293490916,0.1686615268127824,0,0,0.3830528520281619,0.2219769861955241,0,0,0.09040600994610042,-0.1048330418187581,0,0,-0.1355330603973772,-0.3741958697416256,0,1623.809523809524,801.025641025641,803.8461538461539,1624.212454212454,746.6300366300367,835.6776556776557,0.346863,-0.104492,0.886108,2.078552,-0.336456,2.444916,1,4,1,1,4,84.000000
2023-05-23 12:34:23.778,0,0.1455308701118102,0.1596717850105865,0,0,0.3543487467811229,0.02548871076503363,0,0,0.3428394709435483,0.1763161860987327,0,0,0.09140060397221329,-0.1124707785395995,0,0,-0.1546955699959141,-0.4360911504413484,0,1623.809523809524,806.6666666666667,803.040293040293,1624.212454212454,831.6483516483516,912.6373626373627,0.370544,-0.110718,0.982727,2.482300,-3.618774,3.828125,1,4,1,1,4,84.000000
2023-05-23 12:34:24.773,0,-0.03714147911001701,-0.2627625249479449,0,0,0.2308058876262818,-0.2637184310133436,0,0,0.3533845244680158,0.119329830983639,0,0,0.1428987173240615,-0.1186121988237147,0,0,-0.3697056381774265,-0.3199330148816249,0,1623.809523809524,804.2490842490843,809.8901098901099,1624.212454212454,813.5164835164835,818.3516483516484,0.347717,-0.093933,0.918884,3.573914,-2.534637,4.501038,1,4,1,1,4,84.000000
